TESTE DA PLACA: RFFE

Operador: Fernando
Numero de Serie: 11111222
RFFE Software Version: V
RFFE - IP: 10.0.18.199
RFFE - Communication: OK
Start Time: 24-02-2017 11:44:34
End Time: 24-02-2017 11:44:34
Duracao do Teste: 6.5821 min

Set-up Info:
Network Analyzer Model: E5062A
Network Analyzer - IP: 10.0.18.66
Network Analyzer - Communication: OK
Waveform Generator Model: 33500B
Waveform Generator - IP: 10.0.18.69
Waveform Generator - Communication: OK
RF Switch Model: RC-2SP4T-A18
RF Switch1 - IP: 10.0.18.68
RF Switch1 - Communication: OK
RF Switch2 - IP: 10.0.18.50
RF Switch2 - Communication: OK
DC Power Supply Model: 6626A

RESULTS:

RFFE Ch: 4-4

Freq [MHz]  S11 [dB]    S12 [dB]    S21 [dB]    S22 [dB]    
430.0       -2.97       -58.23      -42.49      -19.83      
430.05625   -3.01       -66.4       -42.39      -19.91      
430.1125    -2.99       -58.94      -43.72      -19.7       
430.16875   -2.99       -59.66      -41.91      -19.83      
430.225     -3.0        -75.87      -43.5       -19.81      
430.28125   -3.01       -73.09      -42.23      -19.87      
430.3375    -3.0        -59.43      -42.14      -19.84      
430.39375   -3.02       -62.48      -42.64      -19.79      
430.45      -3.01       -62.98      -42.77      -19.87      
430.50625   -3.0        -63.09      -41.82      -19.77      
430.5625    -3.01       -61.44      -43.42      -19.89      
430.61875   -2.99       -68.26      -44.11      -19.84      
430.675     -3.0        -64.62      -44.26      -19.82      
430.73125   -2.99       -58.45      -43.98      -19.78      
430.7875    -2.99       -60.01      -44.07      -19.78      
430.84375   -3.0        -65.87      -46.11      -19.83      
430.9       -3.01       -63.84      -44.06      -19.72      
430.95625   -3.01       -65.04      -43.86      -19.78      
431.0125    -2.97       -70.51      -46.29      -19.7       
431.06875   -2.99       -65.69      -45.41      -19.73      
431.125     -2.97       -67.28      -44.52      -19.76      
431.18125   -2.97       -70.3       -44.52      -19.81      
431.2375    -2.97       -64.11      -45.4       -19.72      
431.29375   -2.98       -66.72      -44.68      -19.78      
431.35      -2.98       -73.77      -46.44      -19.84      
431.40625   -2.98       -67.61      -45.89      -19.88      
431.4625    -2.99       -61.77      -45.58      -19.85      
431.51875   -2.97       -61.38      -45.4       -19.84      
431.575     -3.01       -62.55      -45.88      -19.87      
431.63125   -3.02       -62.9       -44.95      -19.79      
431.6875    -3.02       -63.49      -44.83      -19.74      
431.74375   -3.05       -62.52      -44.47      -19.82      
431.8       -3.04       -59.24      -45.14      -19.77      
431.85625   -3.06       -64.92      -43.56      -19.86      
431.9125    -3.02       -67.95      -43.55      -19.88      
431.96875   -3.04       -61.31      -44.68      -19.81      
432.025     -3.05       -60.63      -45.63      -19.85      
432.08125   -3.02       -63.7       -43.82      -19.83      
432.1375    -3.07       -59.39      -45.3       -19.92      
432.19375   -3.04       -66.36      -42.24      -19.88      
432.25      -3.04       -68.9       -41.54      -19.88      
432.30625   -3.03       -59.99      -42.08      -19.89      
432.3625    -3.02       -73.07      -42.36      -19.97      
432.41875   -3.05       -58.09      -42.07      -19.9       
432.475     -3.06       -57.04      -41.14      -19.88      
432.53125   -3.06       -58.45      -42.88      -19.85      
432.5875    -3.05       -60.03      -42.06      -19.83      
432.64375   -3.07       -72.82      -41.51      -19.81      
432.7       -3.06       -70.63      -41.77      -19.78      
432.75625   -3.1        -59.53      -42.34      -19.98      
432.8125    -3.1        -57.68      -40.79      -19.88      
432.86875   -3.1        -60.07      -41.56      -19.88      
432.925     -3.12       -64.16      -41.24      -19.95      
432.98125   -3.18       -70.2       -41.88      -19.89      
433.0375    -3.2        -62.48      -41.3       -19.89      
433.09375   -3.18       -67.47      -42.61      -19.99      
433.15      -3.2        -66.88      -44.38      -19.94      
433.20625   -3.19       -62.39      -43.7       -19.9       
433.2625    -3.22       -77.63      -44.0       -19.93      
433.31875   -3.23       -75.27      -46.29      -19.93      
433.375     -3.2        -60.59      -44.9       -19.98      
433.43125   -3.19       -58.98      -45.51      -19.93      
433.4875    -3.18       -58.18      -45.88      -19.82      
433.54375   -3.17       -72.42      -45.86      -19.82      
433.6       -3.15       -58.59      -45.56      -19.86      
433.65625   -3.16       -69.38      -45.69      -19.88      
433.7125    -3.15       -63.54      -47.9       -19.91      
433.76875   -3.15       -70.43      -47.35      -19.97      
433.825     -3.14       -57.87      -44.78      -19.83      
433.88125   -3.16       -59.88      -48.0       -19.89      
433.9375    -3.13       -66.5       -47.44      -19.86      
433.99375   -3.15       -72.11      -46.32      -19.94      
434.05      -3.13       -60.16      -46.0       -19.85      
434.10625   -3.14       -73.0       -44.76      -19.89      
434.1625    -3.15       -73.38      -45.57      -19.93      
434.21875   -3.14       -54.57      -45.87      -19.83      
434.275     -3.14       -66.83      -48.1       -19.95      
434.33125   -3.16       -63.14      -48.08      -19.96      
434.3875    -3.17       -65.63      -46.48      -19.99      
434.44375   -3.16       -68.7       -48.95      -19.96      
434.5       -3.19       -65.51      -47.07      -20.03      
434.55625   -3.17       -63.2       -45.52      -19.96      
434.6125    -3.14       -65.87      -43.87      -20.03      
434.66875   -3.14       -61.23      -45.09      -19.93      
434.725     -3.13       -60.16      -44.37      -19.99      
434.78125   -3.14       -66.97      -44.81      -20.06      
434.8375    -3.12       -60.28      -43.93      -19.99      
434.89375   -3.1        -60.83      -44.47      -19.99      
434.95      -3.11       -66.88      -43.96      -19.97      
435.00625   -3.14       -59.97      -43.71      -19.95      
435.0625    -3.08       -57.06      -43.55      -20.06      
435.11875   -3.11       -60.99      -42.99      -19.96      
435.175     -3.11       -61.07      -43.29      -20.05      
435.23125   -3.1        -70.96      -41.95      -19.96      
435.2875    -3.1        -75.34      -42.62      -19.97      
435.34375   -3.13       -73.65      -42.17      -19.96      
435.4       -3.14       -60.52      -41.52      -19.99      
435.45625   -3.13       -57.71      -43.65      -19.95      
435.5125    -3.14       -60.39      -43.49      -19.94      
435.56875   -3.15       -69.3       -44.27      -19.95      
435.625     -3.14       -72.9       -43.61      -20.06      
435.68125   -3.13       -56.5       -42.01      -20.02      
435.7375    -3.18       -56.13      -43.15      -20.03      
435.79375   -3.18       -65.93      -45.74      -19.99      
435.85      -3.17       -74.69      -44.68      -19.97      
435.90625   -3.18       -65.92      -43.33      -19.98      
435.9625    -3.15       -66.63      -47.33      -20.01      
436.01875   -3.16       -61.64      -46.29      -19.97      
436.075     -3.15       -70.28      -46.21      -19.94      
436.13125   -3.14       -61.08      -47.41      -19.92      
436.1875    -3.12       -59.1       -46.68      -19.93      
436.24375   -3.15       -65.4       -46.82      -19.87      
436.3       -3.15       -63.0       -49.74      -19.91      
436.35625   -3.13       -56.33      -49.88      -20.02      
436.4125    -3.13       -61.54      -49.65      -20.0       
436.46875   -3.15       -58.46      -50.47      -19.95      
436.525     -3.15       -60.85      -53.22      -20.01      
436.58125   -3.16       -68.31      -54.57      -19.99      
436.6375    -3.2        -81.3       -55.46      -20.04      
436.69375   -3.2        -61.91      -57.15      -20.12      
436.75      -3.23       -63.83      -56.24      -20.02      
436.80625   -3.22       -60.95      -52.13      -20.11      
436.8625    -3.25       -71.0       -52.93      -20.03      
436.91875   -3.26       -62.86      -51.04      -20.05      
436.975     -3.28       -63.27      -52.15      -19.96      
437.03125   -3.28       -59.27      -47.81      -20.02      
437.0875    -3.27       -65.13      -50.65      -20.12      
437.14375   -3.31       -67.5       -48.72      -19.96      
437.2       -3.34       -60.35      -49.62      -20.11      
437.25625   -3.34       -57.66      -51.56      -19.99      
437.3125    -3.37       -68.1       -48.25      -20.01      
437.36875   -3.36       -65.32      -50.77      -20.03      
437.425     -3.37       -59.94      -50.15      -20.0       
437.48125   -3.38       -68.13      -47.33      -20.1       
437.5375    -3.38       -72.86      -48.26      -20.1       
437.59375   -3.36       -62.65      -49.45      -20.16      
437.65      -3.34       -59.74      -46.88      -20.13      
437.70625   -3.35       -62.35      -46.81      -20.13      
437.7625    -3.35       -70.45      -46.43      -20.14      
437.81875   -3.36       -62.46      -45.04      -20.1       
437.875     -3.36       -67.76      -45.8       -20.13      
437.93125   -3.41       -63.85      -46.48      -20.07      
437.9875    -3.4        -53.93      -47.07      -20.06      
438.04375   -3.37       -65.25      -46.05      -20.08      
438.1       -3.38       -68.51      -46.61      -20.22      
438.15625   -3.37       -74.27      -45.92      -20.14      
438.2125    -3.4        -63.81      -46.3       -20.09      
438.26875   -3.37       -63.35      -45.17      -20.11      
438.325     -3.37       -65.78      -45.14      -20.22      
438.38125   -3.35       -56.02      -46.26      -20.13      
438.4375    -3.34       -63.63      -46.24      -20.12      
438.49375   -3.32       -58.74      -46.8       -20.12      
438.55      -3.3        -67.25      -44.89      -20.17      
438.60625   -3.26       -62.51      -46.58      -20.11      
438.6625    -3.28       -61.3       -44.98      -20.17      
438.71875   -3.24       -57.88      -45.98      -20.21      
438.775     -3.24       -61.14      -46.16      -20.08      
438.83125   -3.19       -66.45      -44.48      -20.16      
438.8875    -3.17       -63.81      -43.79      -20.12      
438.94375   -3.16       -67.47      -45.42      -20.17      
439.0       -3.17       -68.74      -44.84      -20.28      
439.05625   -3.16       -62.99      -45.08      -20.19      
439.1125    -3.17       -65.33      -43.48      -20.23      
439.16875   -3.15       -58.94      -44.94      -20.15      
439.225     -3.16       -84.7       -44.73      -20.23      
439.28125   -3.15       -61.07      -43.31      -20.14      
439.3375    -3.14       -80.62      -45.14      -20.11      
439.39375   -3.14       -62.89      -45.38      -20.21      
439.45      -3.14       -64.62      -44.75      -20.18      
439.50625   -3.17       -68.73      -44.72      -20.15      
439.5625    -3.19       -57.95      -44.13      -20.17      
439.61875   -3.19       -56.34      -44.79      -20.21      
439.675     -3.19       -59.27      -44.24      -20.21      
439.73125   -3.19       -70.13      -43.27      -20.26      
439.7875    -3.19       -69.11      -44.39      -20.25      
439.84375   -3.21       -59.28      -45.55      -20.16      
439.9       -3.21       -56.63      -45.0       -20.28      
439.95625   -3.19       -62.92      -44.03      -20.25      
440.0125    -3.23       -63.79      -44.55      -20.28      
440.06875   -3.23       -63.27      -45.69      -20.2       
440.125     -3.27       -57.96      -45.61      -20.4       
440.18125   -3.29       -61.83      -43.18      -20.21      
440.2375    -3.27       -57.12      -44.88      -20.31      
440.29375   -3.27       -60.73      -45.45      -20.19      
440.35      -3.3        -59.1       -45.3       -20.18      
440.40625   -3.3        -59.23      -45.04      -20.17      
440.4625    -3.34       -65.68      -43.47      -20.23      
440.51875   -3.36       -64.37      -44.91      -20.16      
440.575     -3.37       -62.72      -45.65      -20.15      
440.63125   -3.42       -69.59      -47.35      -20.29      
440.6875    -3.46       -58.08      -44.68      -20.32      
440.74375   -3.51       -67.15      -46.32      -20.26      
440.8       -3.56       -69.13      -47.13      -20.23      
440.85625   -3.6        -77.12      -43.75      -20.18      
440.9125    -3.62       -72.69      -43.81      -20.16      
440.96875   -3.62       -68.71      -42.9       -20.22      
441.025     -3.6        -65.54      -43.22      -20.25      
441.08125   -3.59       -61.3       -44.7       -20.24      
441.1375    -3.59       -64.04      -44.05      -20.24      
441.19375   -3.57       -64.57      -43.11      -20.24      
441.25      -3.47       -74.18      -43.23      -20.23      
441.30625   -3.47       -63.0       -42.88      -20.23      
441.3625    -3.42       -62.2       -41.24      -20.3       
441.41875   -3.37       -67.72      -41.89      -20.19      
441.475     -3.36       -58.7       -42.19      -20.26      
441.53125   -3.33       -61.89      -42.49      -20.18      
441.5875    -3.28       -61.99      -42.1       -20.31      
441.64375   -3.27       -61.83      -42.92      -20.21      
441.7       -3.23       -63.9       -43.05      -20.26      
441.75625   -3.2        -72.94      -42.18      -20.28      
441.8125    -3.18       -60.04      -41.75      -20.25      
441.86875   -3.19       -63.09      -42.34      -20.3       
441.925     -3.17       -59.07      -42.19      -20.3       
441.98125   -3.17       -67.01      -42.24      -20.29      
442.0375    -3.18       -64.09      -41.78      -20.42      
442.09375   -3.17       -63.37      -42.34      -20.39      
442.15      -3.18       -62.97      -41.62      -20.29      
442.20625   -3.17       -80.25      -42.29      -20.35      
442.2625    -3.14       -60.79      -42.54      -20.34      
442.31875   -3.11       -60.73      -41.7       -20.34      
442.375     -3.18       -62.06      -41.13      -20.27      
442.43125   -3.15       -58.82      -42.37      -20.46      
442.4875    -3.13       -62.26      -42.06      -20.34      
442.54375   -3.12       -72.82      -42.34      -20.31      
442.6       -3.12       -59.15      -41.74      -20.39      
442.65625   -3.1        -73.39      -41.67      -20.32      
442.7125    -3.08       -61.78      -41.72      -20.3       
442.76875   -3.09       -67.98      -42.09      -20.38      
442.825     -3.1        -64.21      -41.6       -20.3       
442.88125   -3.08       -67.23      -43.81      -20.35      
442.9375    -3.08       -58.4       -42.68      -20.37      
442.99375   -3.1        -66.59      -42.82      -20.33      
443.05      -3.1        -62.01      -42.83      -20.37      
443.10625   -3.08       -60.92      -43.33      -20.45      
443.1625    -3.1        -69.18      -42.17      -20.25      
443.21875   -3.13       -62.48      -42.38      -20.34      
443.275     -3.11       -58.46      -42.92      -20.5       
443.33125   -3.12       -68.69      -42.1       -20.45      
443.3875    -3.15       -64.06      -42.2       -20.34      
443.44375   -3.14       -60.16      -43.75      -20.37      
443.5       -3.14       -80.42      -42.63      -20.49      
443.55625   -3.16       -64.7       -43.04      -20.45      
443.6125    -3.17       -67.96      -42.17      -20.44      
443.66875   -3.16       -64.37      -42.18      -20.43      
443.725     -3.15       -58.25      -42.97      -20.43      
443.78125   -3.18       -65.97      -43.44      -20.4       
443.8375    -3.16       -66.23      -41.89      -20.4       
443.89375   -3.16       -66.94      -43.91      -20.33      
443.95      -3.14       -58.69      -43.3       -20.3       
444.00625   -3.15       -63.93      -43.28      -20.39      
444.0625    -3.16       -69.03      -45.96      -20.37      
444.11875   -3.18       -67.96      -42.97      -20.42      
444.175     -3.15       -62.52      -44.22      -20.39      
444.23125   -3.18       -62.09      -43.53      -20.4       
444.2875    -3.15       -63.12      -47.08      -20.52      
444.34375   -3.16       -58.4       -44.47      -20.58      
444.4       -3.17       -75.05      -44.68      -20.58      
444.45625   -3.18       -61.94      -42.95      -20.47      
444.5125    -3.18       -58.5       -46.11      -20.52      
444.56875   -3.16       -70.7       -43.23      -20.45      
444.625     -3.16       -67.82      -42.62      -20.47      
444.68125   -3.18       -57.82      -43.92      -20.53      
444.7375    -3.17       -59.85      -44.56      -20.63      
444.79375   -3.16       -64.64      -45.71      -20.56      
444.85      -3.15       -63.44      -42.86      -20.58      
444.90625   -3.17       -71.6       -44.09      -20.45      
444.9625    -3.13       -67.91      -44.33      -20.63      
445.01875   -3.11       -62.03      -44.44      -20.49      
445.075     -3.12       -62.37      -43.75      -20.59      
445.13125   -3.11       -61.95      -43.17      -20.49      
445.1875    -3.1        -83.24      -44.51      -20.57      
445.24375   -3.08       -58.68      -42.78      -20.63      
445.3       -3.09       -67.87      -44.43      -20.69      
445.35625   -3.08       -67.25      -44.72      -20.67      
445.4125    -3.06       -67.39      -43.42      -20.6       
445.46875   -3.05       -71.42      -44.45      -20.57      
445.525     -3.05       -60.02      -44.3       -20.59      
445.58125   -3.0        -56.89      -42.83      -20.56      
445.6375    -3.01       -61.46      -43.2       -20.6       
445.69375   -2.99       -57.55      -43.63      -20.58      
445.75      -2.97       -76.86      -42.56      -20.67      
445.80625   -2.98       -69.25      -44.07      -20.68      
445.8625    -2.97       -60.95      -42.11      -20.58      
445.91875   -2.97       -66.88      -42.98      -20.52      
445.975     -2.96       -63.84      -44.03      -20.46      
446.03125   -2.95       -66.81      -43.75      -20.47      
446.0875    -2.96       -62.61      -42.77      -20.45      
446.14375   -2.97       -64.22      -43.05      -20.51      
446.2       -2.98       -60.26      -43.82      -20.48      
446.25625   -2.96       -68.38      -43.72      -20.52      
446.3125    -2.95       -67.36      -44.58      -20.62      
446.36875   -2.95       -62.84      -43.81      -20.58      
446.425     -2.95       -74.17      -44.24      -20.56      
446.48125   -2.96       -59.52      -43.87      -20.6       
446.5375    -2.97       -66.55      -43.3       -20.69      
446.59375   -2.95       -64.22      -44.57      -20.72      
446.65      -2.97       -60.26      -44.08      -20.65      
446.70625   -2.94       -57.37      -42.55      -20.73      
446.7625    -2.98       -63.75      -44.56      -20.78      
446.81875   -2.98       -77.26      -43.3       -20.75      
446.875     -2.95       -69.97      -43.65      -20.67      
446.93125   -2.95       -78.92      -43.17      -20.66      
446.9875    -2.95       -60.68      -44.25      -20.73      
447.04375   -2.96       -57.25      -43.83      -20.69      
447.1       -2.97       -73.04      -43.85      -20.62      
447.15625   -2.97       -64.23      -44.31      -20.69      
447.2125    -2.97       -66.56      -43.89      -20.76      
447.26875   -2.95       -72.72      -43.29      -20.67      
447.325     -2.98       -64.26      -41.71      -20.71      
447.38125   -2.96       -64.51      -43.26      -20.84      
447.4375    -2.97       -62.85      -42.7       -20.72      
447.49375   -2.99       -65.84      -43.45      -20.74      
447.55      -2.97       -68.88      -42.59      -20.61      
447.60625   -2.97       -66.43      -42.55      -20.77      
447.6625    -2.97       -62.45      -43.58      -20.75      
447.71875   -2.97       -64.21      -42.69      -20.69      
447.775     -2.96       -56.46      -42.63      -20.71      
447.83125   -2.96       -66.26      -42.57      -20.72      
447.8875    -2.96       -60.83      -42.14      -20.63      
447.94375   -2.96       -62.68      -41.73      -20.7       
448.0       -2.95       -57.02      -42.98      -20.75      
448.05625   -2.97       -61.34      -42.37      -20.65      
448.1125    -2.96       -57.62      -41.91      -20.7       
448.16875   -2.97       -67.35      -43.75      -20.6       
448.225     -2.99       -61.69      -41.76      -20.67      
448.28125   -2.98       -61.08      -42.1       -20.67      
448.3375    -2.98       -59.26      -42.0       -20.77      
448.39375   -2.97       -62.97      -42.0       -20.62      
448.45      -2.98       -64.81      -42.62      -20.73      
448.50625   -2.98       -67.21      -42.86      -20.68      
448.5625    -2.97       -62.44      -42.36      -20.68      
448.61875   -2.96       -56.06      -42.5       -20.74      
448.675     -2.94       -61.5       -43.14      -20.77      
448.73125   -2.94       -78.57      -42.64      -20.64      
448.7875    -2.93       -60.1       -41.93      -20.6       
448.84375   -2.92       -61.26      -42.34      -20.72      
448.9       -2.91       -67.53      -42.15      -20.74      
448.95625   -2.9        -54.67      -42.21      -20.76      
449.0125    -2.9        -67.57      -42.79      -20.75      
449.06875   -2.91       -61.69      -43.32      -20.73      
449.125     -2.9        -55.82      -42.85      -20.8       
449.18125   -2.92       -69.07      -42.76      -20.64      
449.2375    -2.91       -63.79      -42.25      -20.87      
449.29375   -2.92       -69.66      -42.08      -20.7       
449.35      -2.93       -70.06      -42.94      -20.76      
449.40625   -2.92       -75.16      -43.92      -20.76      
449.4625    -2.9        -62.5       -42.35      -20.68      
449.51875   -2.93       -55.52      -41.98      -20.79      
449.575     -2.92       -63.75      -42.6       -20.8       
449.63125   -2.93       -65.04      -42.1       -20.73      
449.6875    -2.93       -56.57      -41.83      -20.74      
449.74375   -2.91       -78.13      -42.38      -20.77      
449.8       -2.91       -65.39      -41.77      -20.76      
449.85625   -2.92       -65.0       -42.16      -20.74      
449.9125    -2.94       -57.67      -41.06      -20.94      
449.96875   -2.91       -67.92      -40.74      -20.8       
450.025     -2.91       -64.24      -42.08      -20.78      
450.08125   -2.92       -59.56      -41.7       -20.92      
450.1375    -2.9        -71.6       -40.71      -20.79      
450.19375   -2.92       -61.49      -41.36      -20.81      
450.25      -2.94       -70.12      -41.14      -20.89      
450.30625   -2.92       -61.85      -40.03      -20.87      
450.3625    -2.91       -65.64      -41.01      -20.82      
450.41875   -2.91       -63.24      -41.33      -20.81      
450.475     -2.93       -64.04      -40.51      -20.83      
450.53125   -2.92       -64.74      -40.28      -20.74      
450.5875    -2.92       -82.15      -41.55      -20.83      
450.64375   -2.92       -60.96      -41.16      -20.77      
450.7       -2.91       -63.53      -40.68      -20.75      
450.75625   -2.94       -70.59      -41.33      -20.8       
450.8125    -2.92       -64.35      -40.78      -20.74      
450.86875   -2.94       -60.32      -41.37      -20.73      
450.925     -2.93       -64.08      -41.29      -20.83      
450.98125   -2.94       -72.6       -41.44      -20.88      
451.0375    -2.94       -67.67      -40.67      -20.85      
451.09375   -2.94       -63.13      -40.41      -20.85      
451.15      -2.92       -56.52      -40.61      -20.9       
451.20625   -2.95       -60.87      -40.73      -20.79      
451.2625    -2.93       -64.11      -40.68      -20.82      
451.31875   -2.95       -67.66      -40.83      -20.92      
451.375     -2.97       -60.72      -40.34      -20.86      
451.43125   -2.94       -61.61      -40.18      -20.88      
451.4875    -2.94       -56.69      -39.79      -20.92      
451.54375   -2.95       -64.89      -40.56      -20.83      
451.6       -2.94       -61.03      -41.09      -20.88      
451.65625   -2.93       -62.0       -40.7       -20.9       
451.7125    -2.93       -61.6       -40.48      -20.83      
451.76875   -2.92       -60.01      -39.8       -20.86      
451.825     -2.93       -62.76      -40.57      -20.8       
451.88125   -2.93       -64.14      -40.94      -20.9       
451.9375    -2.95       -73.7       -39.33      -20.88      
451.99375   -2.94       -59.51      -40.19      -20.94      
452.05      -2.93       -64.18      -39.44      -20.93      
452.10625   -2.93       -62.97      -39.99      -20.91      
452.1625    -2.93       -66.9       -39.84      -20.92      
452.21875   -2.96       -64.55      -39.84      -20.89      
452.275     -2.97       -65.63      -41.03      -20.78      
452.33125   -2.96       -65.45      -40.95      -20.88      
452.3875    -2.95       -62.23      -40.67      -20.88      
452.44375   -2.99       -63.33      -40.03      -20.94      
452.5       -2.96       -69.44      -39.98      -20.88      
452.55625   -2.99       -60.38      -40.34      -20.93      
452.6125    -2.97       -58.05      -40.2       -20.89      
452.66875   -2.98       -58.58      -40.19      -20.89      
452.725     -2.98       -57.02      -40.01      -20.9       
452.78125   -2.98       -59.12      -40.86      -20.96      
452.8375    -2.99       -58.94      -39.95      -20.93      
452.89375   -2.99       -62.98      -40.35      -21.0       
452.95      -2.98       -66.3       -40.4       -21.01      
453.00625   -2.98       -60.47      -40.05      -21.07      
453.0625    -2.97       -67.91      -40.18      -20.92      
453.11875   -2.98       -65.4       -40.05      -21.03      
453.175     -2.99       -69.35      -39.98      -20.98      
453.23125   -2.98       -63.83      -39.9       -20.94      
453.2875    -2.99       -58.61      -39.81      -20.97      
453.34375   -2.99       -59.18      -39.87      -21.02      
453.4       -3.03       -60.96      -39.27      -21.0       
453.45625   -3.01       -65.42      -39.78      -21.02      
453.5125    -3.0        -60.9       -39.92      -21.12      
453.56875   -3.0        -71.77      -40.39      -21.04      
453.625     -3.0        -57.34      -38.77      -21.0       
453.68125   -2.99       -68.62      -39.71      -20.99      
453.7375    -3.0        -65.51      -39.09      -21.09      
453.79375   -3.02       -57.63      -38.36      -21.12      
453.85      -3.01       -55.05      -38.08      -21.06      
453.90625   -2.99       -63.48      -37.97      -21.04      
453.9625    -3.01       -65.26      -38.37      -21.11      
454.01875   -3.01       -64.98      -37.99      -21.09      
454.075     -2.99       -64.22      -37.5       -21.04      
454.13125   -3.04       -62.69      -38.53      -21.07      
454.1875    -3.06       -59.51      -38.64      -21.13      
454.24375   -3.03       -67.48      -38.62      -21.04      
454.3       -3.03       -66.99      -38.6       -21.03      
454.35625   -3.07       -62.09      -38.75      -21.05      
454.4125    -3.06       -65.43      -38.26      -21.08      
454.46875   -3.1        -61.81      -37.72      -21.05      
454.525     -3.07       -56.92      -38.15      -21.12      
454.58125   -3.1        -65.1       -39.07      -21.08      
454.6375    -3.12       -62.4       -38.54      -21.1       
454.69375   -3.14       -59.52      -38.84      -21.05      
454.75      -3.11       -66.61      -39.1       -21.08      
454.80625   -3.15       -59.56      -40.18      -21.08      
454.8625    -3.14       -62.16      -40.7       -21.06      
454.91875   -3.19       -65.75      -42.19      -21.09      
454.975     -3.21       -67.39      -42.97      -21.16      
455.03125   -3.23       -68.1       -43.31      -21.06      
455.0875    -3.25       -62.35      -44.06      -21.05      
455.14375   -3.28       -65.7       -43.22      -21.1       
455.2       -3.31       -62.54      -44.25      -21.01      
455.25625   -3.36       -56.7       -42.52      -21.06      
455.3125    -3.34       -65.31      -42.16      -21.08      
455.36875   -3.35       -67.39      -43.62      -21.06      
455.425     -3.36       -55.84      -41.4       -21.05      
455.48125   -3.37       -59.15      -42.66      -21.13      
455.5375    -3.34       -72.14      -43.2       -21.11      
455.59375   -3.34       -72.1       -42.03      -21.15      
455.65      -3.31       -63.03      -42.02      -21.17      
455.70625   -3.26       -65.84      -41.6       -21.13      
455.7625    -3.25       -63.14      -41.5       -21.09      
455.81875   -3.19       -65.63      -41.69      -21.16      
455.875     -3.22       -69.01      -42.77      -21.05      
455.93125   -3.17       -71.82      -42.77      -21.16      
455.9875    -3.16       -86.41      -43.19      -21.14      
456.04375   -3.15       -57.99      -43.66      -21.09      
456.1       -3.14       -73.67      -43.56      -21.12      
456.15625   -3.12       -63.23      -42.33      -21.08      
456.2125    -3.09       -61.89      -41.59      -21.12      
456.26875   -3.11       -55.17      -43.2       -21.12      
456.325     -3.08       -58.72      -43.31      -21.19      
456.38125   -3.1        -60.18      -43.0       -21.06      
456.4375    -3.08       -59.05      -42.46      -21.15      
456.49375   -3.07       -70.9       -43.5       -21.03      
456.55      -3.07       -59.17      -43.18      -21.07      
456.60625   -3.08       -61.65      -43.02      -21.15      
456.6625    -3.09       -60.11      -42.74      -21.12      
456.71875   -3.08       -58.5       -42.9       -21.12      
456.775     -3.06       -56.06      -43.97      -21.24      
456.83125   -3.09       -62.69      -41.84      -21.28      
456.8875    -3.12       -68.14      -42.91      -21.26      
456.94375   -3.14       -60.17      -41.84      -21.17      
457.0       -3.15       -66.1       -42.23      -21.18      
457.05625   -3.15       -55.8       -39.54      -21.11      
457.1125    -3.15       -65.66      -38.78      -21.1       
457.16875   -3.16       -60.03      -38.78      -21.26      
457.225     -3.18       -65.81      -37.96      -21.22      
457.28125   -3.2        -61.95      -36.43      -21.14      
457.3375    -3.22       -59.96      -35.62      -21.24      
457.39375   -3.26       -64.26      -34.57      -21.23      
457.45      -3.28       -61.53      -33.38      -21.22      
457.50625   -3.27       -61.4       -31.78      -21.16      
457.5625    -3.33       -62.17      -30.69      -21.23      
457.61875   -3.38       -61.41      -29.44      -21.18      
457.675     -3.45       -67.23      -27.91      -21.11      
457.73125   -3.47       -62.86      -26.73      -21.17      
457.7875    -3.56       -67.01      -25.24      -21.15      
457.84375   -3.65       -69.01      -23.86      -21.12      
457.9       -3.72       -67.83      -22.36      -21.21      
457.95625   -3.84       -63.93      -21.01      -21.17      
458.0125    -3.9        -58.76      -19.65      -21.29      
458.06875   -3.94       -56.31      -18.49      -21.28      
458.125     -4.04       -63.23      -17.68      -21.22      
458.18125   -4.1        -58.97      -17.0       -21.31      
458.2375    -4.12       -68.52      -16.79      -21.29      
458.29375   -4.1        -67.45      -16.9       -21.31      
458.35      -4.1        -57.56      -17.05      -21.3       
458.40625   -4.03       -56.44      -17.5       -21.27      
458.4625    -3.96       -68.63      -18.26      -21.29      
458.51875   -3.92       -63.5       -19.2       -21.32      
458.575     -3.8        -58.26      -20.19      -21.32      
458.63125   -3.73       -60.16      -21.44      -21.34      
458.6875    -3.66       -59.69      -22.45      -21.31      
458.74375   -3.58       -65.02      -23.23      -21.33      
458.8       -3.55       -64.12      -24.01      -21.17      
458.85625   -3.49       -69.38      -25.06      -21.26      
458.9125    -3.43       -60.08      -25.79      -21.19      
458.96875   -3.41       -59.61      -26.93      -21.18      
459.025     -3.36       -59.57      -27.85      -21.22      
459.08125   -3.37       -56.13      -29.17      -21.29      
459.1375    -3.34       -60.47      -30.54      -21.31      
459.19375   -3.36       -62.12      -31.35      -21.35      
459.25      -3.31       -63.44      -32.84      -21.31      
459.30625   -3.31       -57.93      -33.54      -21.22      
459.3625    -3.32       -59.59      -34.69      -21.18      
459.41875   -3.3        -64.78      -36.92      -21.24      
459.475     -3.31       -58.21      -37.06      -21.25      
459.53125   -3.31       -71.74      -38.6       -21.3       
459.5875    -3.32       -78.62      -39.55      -21.27      
459.64375   -3.32       -64.62      -40.22      -21.2       
459.7       -3.32       -67.21      -39.29      -21.23      
459.75625   -3.33       -75.73      -40.33      -21.29      
459.8125    -3.37       -62.8       -39.01      -21.17      
459.86875   -3.4        -65.61      -38.5       -21.2       
459.925     -3.42       -69.82      -37.05      -21.21      
459.98125   -3.47       -62.44      -35.93      -21.37      
460.0375    -3.52       -62.69      -33.86      -21.21      
460.09375   -3.53       -64.57      -32.32      -21.23      
460.15      -3.59       -62.1       -30.56      -21.2       
460.20625   -3.63       -72.74      -28.54      -21.24      
460.2625    -3.69       -57.84      -26.66      -21.16      
460.31875   -3.78       -65.72      -24.74      -21.28      
460.375     -3.86       -67.31      -22.42      -21.29      
460.43125   -4.02       -72.04      -19.96      -21.39      
460.4875    -4.24       -68.73      -17.64      -21.24      
460.54375   -4.49       -57.86      -15.29      -21.22      
460.6       -4.7        -68.68      -13.27      -21.37      
460.65625   -4.89       -61.7       -11.71      -21.27      
460.7125    -5.07       -57.26      -10.82      -21.35      
460.76875   -5.22       -67.74      -10.46      -21.32      
460.825     -5.32       -61.06      -10.66      -21.35      
460.88125   -5.33       -66.34      -11.39      -21.28      
460.9375    -5.15       -68.91      -12.76      -21.49      
460.99375   -4.76       -64.67      -14.85      -21.39      
461.05      -4.41       -58.2       -17.46      -21.49      
461.10625   -4.15       -63.76      -20.23      -21.43      
461.1625    -3.95       -61.11      -23.03      -21.46      
461.21875   -3.78       -60.91      -25.79      -21.5       
461.275     -3.68       -66.96      -28.8       -21.45      
461.33125   -3.62       -63.56      -31.63      -21.45      
461.3875    -3.56       -67.3       -34.82      -21.52      
461.44375   -3.53       -75.61      -38.03      -21.41      
461.5       -3.52       -60.7       -38.39      -21.42      
461.55625   -3.47       -58.66      -37.64      -21.45      
461.6125    -3.48       -60.39      -36.25      -21.31      
461.66875   -3.53       -64.57      -33.19      -21.43      
461.725     -3.52       -67.68      -31.09      -21.39      
461.78125   -3.55       -55.85      -28.91      -21.34      
461.8375    -3.54       -65.02      -26.27      -21.39      
461.89375   -3.58       -59.8       -24.13      -21.47      
461.95      -3.64       -59.93      -22.15      -21.44      
462.00625   -3.7        -74.86      -20.17      -21.34      
462.0625    -3.75       -74.94      -18.02      -21.32      
462.11875   -3.84       -60.7       -16.27      -21.43      
462.175     -3.95       -75.51      -14.44      -21.54      
462.23125   -4.07       -60.58      -12.72      -21.47      
462.2875    -4.29       -66.85      -10.97      -21.48      
462.34375   -4.5        -59.75      -9.38       -21.43      
462.4       -4.78       -67.85      -7.8        -21.42      
462.45625   -5.17       -67.67      -6.28       -21.37      
462.5125    -5.62       -58.42      -4.82       -21.35      
462.56875   -6.24       -63.86      -3.5        -21.4       
462.625     -7.02       -87.92      -2.22       -21.42      
462.68125   -8.03       -60.06      -1.06       -21.45      
462.7375    -9.3        -59.56      -0.03       -21.35      
462.79375   -10.91      -69.15      0.87        -21.43      
462.85      -12.91      -63.51      1.62        -21.5       
462.90625   -15.31      -68.36      2.22        -21.47      
462.9625    -17.99      -61.91      2.68        -21.4       
463.01875   -20.59      -68.81      3.05        -21.45      
463.075     -21.5       -59.86      3.37        -21.44      
463.13125   -20.49      -78.9       3.59        -21.63      
463.1875    -18.98      -68.37      3.76        -21.32      
463.24375   -17.79      -57.92      3.93        -21.63      
463.3       -16.71      -61.99      4.04        -21.51      
463.35625   -16.01      -60.72      4.14        -21.58      
463.4125    -15.55      -65.24      4.25        -21.52      
463.46875   -15.25      -77.57      4.36        -21.5       
463.525     -15.13      -63.56      4.46        -21.52      
463.58125   -15.03      -58.81      4.53        -21.52      
463.6375    -15.16      -63.81      4.62        -21.59      
463.69375   -15.4       -66.32      4.7         -21.63      
463.75      -15.59      -59.88      4.8         -21.56      
463.80625   -16.04      -73.68      4.86        -21.5       
463.8625    -16.47      -71.62      4.95        -21.5       
463.91875   -16.94      -62.71      5.04        -21.54      
463.975     -17.63      -63.12      5.09        -21.64      
464.03125   -18.07      -59.68      5.17        -21.49      
464.0875    -18.89      -59.62      5.21        -21.6       
464.14375   -19.58      -61.72      5.28        -21.6       
464.2       -20.27      -63.45      5.32        -21.52      
464.25625   -20.99      -70.12      5.36        -21.58      
464.3125    -21.64      -59.78      5.44        -21.56      
464.36875   -22.28      -64.77      5.45        -21.6       
464.425     -22.63      -75.09      5.49        -21.56      
464.48125   -22.78      -58.29      5.53        -21.63      
464.5375    -22.63      -64.56      5.56        -21.58      
464.59375   -22.41      -59.18      5.57        -21.6       
464.65      -21.83      -66.65      5.58        -21.46      
464.70625   -21.33      -57.98      5.63        -21.49      
464.7625    -20.79      -60.47      5.6         -21.55      
464.81875   -20.23      -74.55      5.64        -21.63      
464.875     -19.62      -66.97      5.66        -21.54      
464.93125   -19.01      -71.2       5.66        -21.46      
464.9875    -18.56      -59.06      5.65        -21.45      
465.04375   -18.03      -74.91      5.68        -21.63      
465.1       -17.63      -62.1       5.69        -21.41      
465.15625   -17.25      -61.77      5.69        -21.43      
465.2125    -16.96      -55.89      5.71        -21.47      
465.26875   -16.53      -69.09      5.7         -21.55      
465.325     -16.21      -75.68      5.71        -21.59      
465.38125   -16.0       -75.07      5.69        -21.5       
465.4375    -15.73      -65.4       5.69        -21.57      
465.49375   -15.57      -65.81      5.71        -21.5       
465.55      -15.31      -62.05      5.74        -21.63      
465.60625   -15.07      -75.54      5.72        -21.56      
465.6625    -14.92      -54.71      5.73        -21.46      
465.71875   -14.76      -58.82      5.72        -21.56      
465.775     -14.6       -61.0       5.71        -21.63      
465.83125   -14.59      -64.36      5.72        -21.53      
465.8875    -14.52      -70.24      5.71        -21.66      
465.94375   -14.39      -61.62      5.71        -21.53      
466.0       -14.28      -61.9       5.71        -21.63      
466.05625   -14.28      -60.51      5.71        -21.66      
466.1125    -14.2       -65.2       5.74        -21.71      
466.16875   -14.22      -65.67      5.73        -21.61      
466.225     -14.17      -78.18      5.74        -21.75      
466.28125   -14.19      -59.28      5.74        -21.66      
466.3375    -14.16      -58.84      5.74        -21.69      
466.39375   -14.19      -63.46      5.75        -21.69      
466.45      -14.19      -67.57      5.78        -21.71      
466.50625   -14.22      -62.13      5.75        -21.74      
466.5625    -14.35      -70.69      5.79        -21.76      
466.61875   -14.34      -61.56      5.77        -21.69      
466.675     -14.41      -68.0       5.8         -21.66      
466.73125   -14.48      -58.35      5.79        -21.62      
466.7875    -14.61      -58.71      5.84        -21.68      
466.84375   -14.66      -62.7       5.82        -21.63      
466.9       -14.72      -70.53      5.86        -21.67      
466.95625   -14.83      -66.36      5.85        -21.54      
467.0125    -14.89      -61.29      5.89        -21.76      
467.06875   -14.95      -59.15      5.88        -21.63      
467.125     -15.07      -59.4       5.89        -21.7       
467.18125   -15.21      -69.4       5.91        -21.76      
467.2375    -15.3       -60.49      5.91        -21.67      
467.29375   -15.39      -59.21      5.94        -21.75      
467.35      -15.51      -55.64      5.96        -21.66      
467.40625   -15.68      -61.84      5.97        -21.77      
467.4625    -15.73      -69.16      5.97        -21.69      
467.51875   -15.88      -61.24      5.96        -21.7       
467.575     -15.99      -67.3       5.99        -21.67      
467.63125   -16.07      -85.94      5.98        -21.69      
467.6875    -16.2       -68.28      5.97        -21.72      
467.74375   -16.34      -69.52      6.0         -21.75      
467.8       -16.37      -63.78      5.98        -21.71      
467.85625   -16.52      -74.8       6.0         -21.76      
467.9125    -16.55      -58.44      6.01        -21.75      
467.96875   -16.74      -66.73      6.02        -21.78      
468.025     -16.88      -66.29      6.0         -21.8       
468.08125   -16.91      -65.27      6.01        -21.75      
468.1375    -17.05      -57.01      6.03        -21.81      
468.19375   -17.15      -64.28      6.04        -21.76      
468.25      -17.23      -61.73      6.03        -21.78      
468.30625   -17.3       -67.75      6.05        -21.79      
468.3625    -17.3       -62.62      6.06        -21.79      
468.41875   -17.27      -68.39      6.05        -21.81      
468.475     -17.31      -69.89      6.06        -21.85      
468.53125   -17.46      -62.21      6.06        -21.76      
468.5875    -17.39      -66.02      6.05        -21.74      
468.64375   -17.47      -65.21      6.07        -21.59      
468.7       -17.52      -61.29      6.08        -21.82      
468.75625   -17.55      -56.46      6.08        -21.71      
468.8125    -17.46      -71.54      6.08        -21.57      
468.86875   -17.57      -60.48      6.05        -21.7       
468.925     -17.57      -71.17      6.06        -21.74      
468.98125   -17.56      -56.51      6.04        -21.64      
469.0375    -17.7       -70.38      6.03        -21.71      
469.09375   -17.65      -57.08      6.04        -21.63      
469.15      -17.69      -60.81      6.02        -21.82      
469.20625   -17.68      -59.59      6.0         -21.74      
469.2625    -17.76      -61.32      6.02        -21.6       
469.31875   -17.73      -71.96      6.01        -21.59      
469.375     -17.87      -61.75      6.01        -21.82      
469.43125   -17.84      -57.36      6.03        -21.74      
469.4875    -17.89      -59.12      6.01        -21.72      
469.54375   -17.97      -59.21      6.01        -21.77      
469.6       -18.02      -60.91      6.0         -21.83      
469.65625   -18.0       -74.82      6.02        -21.77      
469.7125    -18.01      -67.29      6.01        -21.91      
469.76875   -17.96      -71.55      6.0         -21.95      
469.825     -18.1       -60.99      6.0         -21.91      
469.88125   -18.11      -60.98      6.0         -21.91      
469.9375    -18.08      -69.39      6.01        -21.92      
469.99375   -18.13      -62.85      5.99        -21.85      
470.05      -18.15      -55.49      5.97        -21.93      
470.10625   -18.15      -65.28      5.99        -21.9       
470.1625    -18.3       -62.11      5.99        -21.83      
470.21875   -18.21      -58.56      5.97        -21.97      
470.275     -18.23      -61.99      5.97        -22.06      
470.33125   -18.32      -85.29      5.97        -21.98      
470.3875    -18.35      -71.87      5.98        -21.98      
470.44375   -18.39      -74.81      5.98        -22.0       
470.5       -18.45      -62.82      5.98        -22.16      
470.55625   -18.43      -62.4       5.97        -22.03      
470.6125    -18.62      -59.4       5.99        -22.1       
470.66875   -18.85      -63.84      5.98        -21.86      
470.725     -18.87      -80.72      5.97        -22.06      
470.78125   -18.81      -61.96      5.99        -21.93      
470.8375    -18.99      -62.51      5.95        -21.9       
470.89375   -19.08      -63.05      5.96        -21.76      
470.95      -19.25      -56.64      5.96        -21.88      
471.00625   -19.35      -62.13      5.96        -21.91      
471.0625    -19.28      -64.19      5.97        -21.93      
471.11875   -19.44      -72.68      5.94        -21.8       
471.175     -19.48      -62.88      5.97        -21.97      
471.23125   -19.54      -62.16      5.99        -22.03      
471.2875    -19.63      -60.22      5.98        -22.06      
471.34375   -19.72      -60.46      5.98        -22.11      
471.4       -19.7       -69.61      5.99        -22.01      
471.45625   -19.89      -68.18      6.0         -22.01      
471.5125    -20.04      -84.74      6.0         -22.0       
471.56875   -20.15      -69.34      6.01        -22.03      
471.625     -20.24      -62.96      6.02        -22.04      
471.68125   -20.27      -71.64      6.02        -21.94      
471.7375    -20.33      -57.94      6.03        -22.09      
471.79375   -20.42      -69.37      6.04        -22.01      
471.85      -20.42      -63.11      6.05        -22.11      
471.90625   -20.53      -54.77      6.06        -21.94      
471.9625    -20.56      -58.41      6.05        -22.11      
472.01875   -20.55      -63.93      6.05        -21.96      
472.075     -20.52      -60.31      6.04        -22.01      
472.13125   -20.52      -69.42      6.04        -22.1       
472.1875    -20.53      -63.52      6.05        -22.02      
472.24375   -20.48      -64.82      6.03        -21.93      
472.3       -20.35      -62.62      6.04        -21.95      
472.35625   -20.14      -75.61      6.04        -21.96      
472.4125    -20.01      -60.13      6.03        -21.95      
472.46875   -19.91      -66.5       6.04        -22.07      
472.525     -19.78      -65.42      6.05        -22.07      
472.58125   -19.67      -69.27      6.05        -22.09      
472.6375    -19.53      -61.0       6.04        -22.04      
472.69375   -19.39      -58.76      6.03        -22.17      
472.75      -19.15      -99.37      6.05        -22.07      
472.80625   -19.21      -77.72      6.05        -22.03      
472.8625    -19.14      -70.54      6.06        -22.1       
472.91875   -18.97      -76.29      6.05        -22.0       
472.975     -18.78      -65.96      6.05        -22.1       
473.03125   -18.54      -66.59      6.04        -22.08      
473.0875    -18.51      -61.4       6.04        -22.1       
473.14375   -18.34      -70.22      6.04        -22.15      
473.2       -18.17      -57.73      6.04        -22.13      
473.25625   -18.18      -61.67      6.04        -22.02      
473.3125    -18.02      -65.59      6.02        -22.13      
473.36875   -17.8       -66.47      6.04        -22.08      
473.425     -17.67      -55.09      6.04        -22.19      
473.48125   -17.49      -71.58      6.05        -22.03      
473.5375    -17.3       -59.57      6.03        -22.05      
473.59375   -17.16      -74.17      6.03        -22.21      
473.65      -17.12      -61.45      6.02        -22.06      
473.70625   -16.8       -71.46      6.01        -22.31      
473.7625    -16.7       -61.42      6.0         -21.98      
473.81875   -16.51      -58.4       6.01        -22.08      
473.875     -16.39      -67.71      6.01        -22.14      
473.93125   -16.26      -70.44      6.01        -22.21      
473.9875    -16.09      -69.85      5.99        -22.26      
474.04375   -15.9       -69.18      6.0         -22.23      
474.1       -15.75      -59.49      6.0         -22.22      
474.15625   -15.56      -68.36      6.0         -22.29      
474.2125    -15.51      -65.71      6.0         -22.19      
474.26875   -15.29      -60.54      5.98        -22.21      
474.325     -15.16      -62.23      5.98        -22.27      
474.38125   -15.0       -62.36      5.97        -22.34      
474.4375    -14.85      -65.15      5.98        -22.4       
474.49375   -14.71      -62.49      5.97        -22.45      
474.55      -14.46      -69.99      5.95        -22.42      
474.60625   -14.32      -57.85      5.96        -22.3       
474.6625    -14.17      -74.41      5.94        -22.41      
474.71875   -14.07      -65.01      5.94        -22.37      
474.775     -13.95      -68.64      5.88        -22.44      
474.83125   -13.79      -64.62      5.91        -22.3       
474.8875    -13.62      -61.34      5.88        -22.39      
474.94375   -13.55      -59.29      5.88        -22.3       
475.0       -13.38      -59.13      5.85        -22.45      
475.05625   -13.32      -66.57      5.86        -22.36      
475.1125    -13.19      -67.2       5.83        -22.46      
475.16875   -13.06      -64.35      5.83        -22.46      
475.225     -12.98      -55.88      5.8         -22.31      
475.28125   -12.89      -66.17      5.81        -22.33      
475.3375    -12.77      -63.58      5.79        -22.37      
475.39375   -12.72      -67.41      5.76        -22.34      
475.45      -12.59      -57.45      5.78        -22.24      
475.50625   -12.54      -57.63      5.76        -22.41      
475.5625    -12.45      -65.17      5.74        -22.31      
475.61875   -12.34      -63.08      5.75        -22.38      
475.675     -12.26      -58.3       5.71        -22.27      
475.73125   -12.19      -71.8       5.73        -22.39      
475.7875    -12.13      -60.6       5.69        -22.16      
475.84375   -12.08      -58.1       5.7         -22.11      
475.9       -12.02      -62.98      5.7         -22.35      
475.95625   -11.87      -61.42      5.68        -22.3       
476.0125    -11.84      -65.85      5.65        -22.29      
476.06875   -11.78      -65.49      5.67        -22.28      
476.125     -11.7       -66.34      5.65        -22.48      
476.18125   -11.67      -62.68      5.65        -22.49      
476.2375    -11.56      -65.55      5.65        -22.49      
476.29375   -11.55      -76.38      5.64        -22.44      
476.35      -11.48      -65.39      5.63        -22.43      
476.40625   -11.43      -71.07      5.62        -22.39      
476.4625    -11.36      -68.9       5.59        -22.5       
476.51875   -11.35      -62.91      5.58        -22.42      
476.575     -11.3       -73.38      5.56        -22.56      
476.63125   -11.23      -65.89      5.58        -22.51      
476.6875    -11.19      -62.64      5.55        -22.32      
476.74375   -11.15      -55.68      5.53        -22.42      
476.8       -11.12      -68.44      5.55        -22.5       
476.85625   -11.07      -65.18      5.54        -22.41      
476.9125    -11.06      -60.19      5.53        -22.55      
476.96875   -11.04      -61.03      5.52        -22.54      
477.025     -10.99      -60.23      5.52        -22.51      
477.08125   -10.98      -63.97      5.49        -22.46      
477.1375    -10.98      -70.43      5.49        -22.44      
477.19375   -10.92      -64.05      5.51        -22.49      
477.25      -10.9       -65.03      5.51        -22.43      
477.30625   -10.89      -71.35      5.51        -22.55      
477.3625    -10.88      -62.74      5.48        -22.49      
477.41875   -10.88      -57.64      5.47        -22.57      
477.475     -10.88      -65.82      5.48        -22.52      
477.53125   -10.89      -58.39      5.47        -22.51      
477.5875    -10.91      -58.47      5.47        -22.58      
477.64375   -10.94      -73.61      5.47        -22.57      
477.7       -10.98      -70.25      5.45        -22.55      
477.75625   -10.94      -71.57      5.44        -22.55      
477.8125    -10.95      -57.1       5.46        -22.49      
477.86875   -10.96      -63.02      5.45        -22.53      
477.925     -10.95      -66.02      5.45        -22.56      
477.98125   -10.93      -62.42      5.45        -22.48      
478.0375    -10.96      -67.85      5.44        -22.5       
478.09375   -10.96      -56.63      5.44        -22.48      
478.15      -10.98      -57.97      5.46        -22.5       
478.20625   -10.99      -62.7       5.43        -22.52      
478.2625    -11.01      -69.84      5.43        -22.57      
478.31875   -11.04      -63.24      5.43        -22.48      
478.375     -11.04      -63.03      5.42        -22.41      
478.43125   -11.03      -59.97      5.42        -22.57      
478.4875    -11.09      -52.76      5.42        -22.53      
478.54375   -11.09      -68.85      5.41        -22.46      
478.6       -11.13      -74.74      5.42        -22.52      
478.65625   -11.19      -65.35      5.44        -22.58      
478.7125    -11.24      -56.25      5.45        -22.54      
478.76875   -11.29      -66.0       5.44        -22.51      
478.825     -11.33      -59.27      5.44        -22.67      
478.88125   -11.36      -57.42      5.44        -22.54      
478.9375    -11.44      -62.61      5.47        -22.43      
478.99375   -11.54      -62.55      5.45        -22.64      
479.05      -11.59      -63.28      5.47        -22.57      
479.10625   -11.67      -66.93      5.47        -22.71      
479.1625    -11.71      -60.23      5.47        -22.62      
479.21875   -11.73      -65.08      5.49        -22.64      
479.275     -11.81      -68.37      5.48        -22.68      
479.33125   -11.87      -55.49      5.49        -22.67      
479.3875    -11.94      -72.71      5.49        -22.66      
479.44375   -11.98      -61.68      5.51        -22.72      
479.5       -12.06      -61.43      5.5         -22.71      
479.55625   -12.14      -58.97      5.51        -22.64      
479.6125    -12.21      -64.5       5.52        -22.69      
479.66875   -12.3       -61.36      5.52        -22.67      
479.725     -12.33      -59.15      5.53        -22.62      
479.78125   -12.45      -61.35      5.53        -22.59      
479.8375    -12.48      -63.96      5.57        -22.76      
479.89375   -12.63      -59.79      5.55        -22.68      
479.95      -12.7       -58.01      5.57        -22.67      
480.00625   -12.75      -64.06      5.57        -22.65      
480.0625    -12.91      -60.07      5.57        -22.74      
480.11875   -12.99      -61.43      5.58        -22.74      
480.175     -13.1       -69.73      5.59        -22.67      
480.23125   -13.3       -69.5       5.64        -22.7       
480.2875    -13.41      -55.21      5.63        -22.55      
480.34375   -13.59      -59.52      5.66        -22.7       
480.4       -13.76      -63.62      5.65        -22.68      
480.45625   -13.84      -53.54      5.67        -22.59      
480.5125    -13.97      -67.22      5.68        -22.85      
480.56875   -14.07      -67.2       5.68        -22.62      
480.625     -14.22      -60.14      5.68        -22.79      
480.68125   -14.35      -63.81      5.68        -22.67      
480.7375    -14.46      -59.44      5.68        -22.84      
480.79375   -14.6       -58.87      5.69        -22.8       
480.85      -14.73      -60.0       5.69        -22.75      
480.90625   -14.85      -63.76      5.69        -22.79      
480.9625    -14.98      -85.49      5.72        -22.73      
481.01875   -15.08      -62.52      5.72        -22.84      
481.075     -15.24      -70.63      5.74        -22.72      
481.13125   -15.34      -70.95      5.73        -22.74      
481.1875    -15.58      -68.84      5.76        -22.9       
481.24375   -15.68      -64.48      5.76        -22.83      
481.3       -15.83      -65.91      5.78        -22.82      
481.35625   -16.02      -60.0       5.77        -22.8       
481.4125    -16.15      -63.72      5.77        -22.8       
481.46875   -16.3       -81.38      5.79        -22.78      
481.525     -16.53      -63.91      5.8         -22.77      
481.58125   -16.73      -76.96      5.79        -22.75      
481.6375    -16.89      -60.74      5.81        -22.62      
481.69375   -17.07      -66.61      5.8         -22.68      
481.75      -17.26      -68.87      5.78        -22.68      
481.80625   -17.32      -63.58      5.81        -22.7       
481.8625    -17.63      -62.49      5.78        -22.78      
481.91875   -17.74      -61.31      5.8         -22.76      
481.975     -17.94      -60.74      5.8         -22.72      
482.03125   -17.95      -78.28      5.78        -22.94      
482.0875    -17.96      -66.55      5.78        -22.84      
482.14375   -17.97      -58.99      5.79        -22.91      
482.2       -18.08      -74.09      5.79        -22.8       
482.25625   -18.09      -64.81      5.79        -22.9       
482.3125    -18.03      -60.03      5.8         -22.83      
482.36875   -17.98      -64.02      5.79        -22.84      
482.425     -17.98      -65.08      5.77        -22.87      
482.48125   -17.94      -66.07      5.75        -22.84      
482.5375    -17.89      -75.55      5.76        -22.93      
482.59375   -17.8       -75.01      5.76        -22.89      
482.65      -17.97      -66.58      5.75        -22.83      
482.70625   -17.84      -66.44      5.76        -22.9       
482.7625    -17.8       -71.85      5.76        -22.95      
482.81875   -17.74      -60.38      5.76        -22.91      
482.875     -17.72      -62.76      5.74        -23.06      
482.93125   -17.61      -57.06      5.72        -22.8       
482.9875    -17.47      -54.37      5.71        -23.06      
483.04375   -17.48      -64.77      5.72        -22.99      
483.1       -17.38      -57.61      5.7         -22.96      
483.15625   -17.32      -63.4       5.67        -22.98      
483.2125    -17.33      -79.66      5.68        -23.08      
483.26875   -17.08      -69.02      5.67        -22.99      
483.325     -16.96      -53.8       5.65        -23.05      
483.38125   -16.81      -73.98      5.66        -22.94      
483.4375    -16.66      -70.93      5.63        -23.05      
483.49375   -16.53      -64.65      5.61        -23.0       
483.55      -16.44      -62.69      5.6         -22.83      
483.60625   -16.34      -58.01      5.6         -22.89      
483.6625    -16.24      -61.42      5.57        -22.85      
483.71875   -16.2       -57.31      5.56        -22.9       
483.775     -16.15      -68.85      5.53        -22.88      
483.83125   -16.02      -63.74      5.49        -22.97      
483.8875    -16.0       -57.76      5.49        -22.88      
483.94375   -16.06      -56.09      5.48        -23.04      
484.0       -15.93      -64.98      5.46        -23.13      
484.05625   -15.98      -73.71      5.44        -22.91      
484.1125    -15.9       -58.67      5.44        -22.89      
484.16875   -15.87      -67.79      5.43        -23.06      
484.225     -15.77      -71.95      5.43        -23.03      
484.28125   -15.75      -60.48      5.41        -23.04      
484.3375    -15.71      -65.55      5.4         -23.0       
484.39375   -15.67      -65.2       5.4         -22.91      
484.45      -15.64      -59.49      5.39        -22.99      
484.50625   -15.7       -67.92      5.38        -22.98      
484.5625    -15.73      -59.57      5.34        -23.07      
484.61875   -15.63      -61.72      5.3         -23.11      
484.675     -15.66      -62.1       5.29        -23.0       
484.73125   -15.69      -64.96      5.26        -22.92      
484.7875    -15.71      -61.33      5.24        -23.1       
484.84375   -15.7       -62.38      5.23        -23.07      
484.9       -15.64      -64.03      5.23        -23.05      
484.95625   -15.69      -55.96      5.22        -23.11      
485.0125    -15.66      -64.85      5.19        -23.04      
485.06875   -15.78      -57.45      5.19        -23.14      
485.125     -15.88      -56.98      5.17        -22.93      
485.18125   -15.94      -77.71      5.19        -23.09      
485.2375    -16.04      -63.55      5.17        -23.08      
485.29375   -16.05      -76.08      5.17        -23.15      
485.35      -16.22      -60.04      5.15        -23.13      
485.40625   -16.39      -64.53      5.14        -22.97      
485.4625    -16.61      -58.98      5.09        -23.17      
485.51875   -16.7       -62.79      5.11        -22.99      
485.575     -16.94      -65.83      5.11        -23.12      
485.63125   -17.19      -65.95      5.11        -22.99      
485.6875    -17.44      -67.0       5.12        -22.96      
485.74375   -17.73      -70.35      5.12        -23.15      
485.8       -18.05      -74.44      5.12        -23.03      
485.85625   -18.43      -73.57      5.11        -23.04      
485.9125    -18.78      -63.28      5.07        -23.02      
485.96875   -19.24      -61.72      5.06        -22.89      
486.025     -19.76      -69.53      5.03        -22.96      
486.08125   -20.33      -62.57      5.02        -22.93      
486.1375    -21.15      -61.07      4.99        -23.14      
486.19375   -21.69      -68.2       5.0         -23.02      
486.25      -22.28      -61.28      4.98        -23.09      
486.30625   -23.14      -69.43      4.95        -23.04      
486.3625    -24.23      -69.53      4.92        -22.92      
486.41875   -25.47      -65.82      4.88        -23.0       
486.475     -26.76      -60.75      4.87        -23.02      
486.53125   -28.96      -62.46      4.83        -22.96      
486.5875    -31.13      -68.46      4.76        -22.9       
486.64375   -34.41      -59.87      4.72        -23.01      
486.7       -40.9       -63.29      4.68        -23.12      
486.75625   -54.37      -67.48      4.64        -23.14      
486.8125    -41.84      -66.23      4.59        -23.09      
486.86875   -34.51      -70.38      4.54        -23.01      
486.925     -31.67      -61.88      4.52        -23.05      
486.98125   -28.72      -67.11      4.48        -23.0       
487.0375    -27.18      -74.36      4.43        -23.05      
487.09375   -25.32      -72.96      4.39        -23.05      
487.15      -23.9       -66.5       4.34        -22.9       
487.20625   -22.78      -64.58      4.3         -23.07      
487.2625    -21.61      -74.06      4.28        -23.12      
487.31875   -20.46      -64.43      4.22        -23.05      
487.375     -19.53      -61.42      4.17        -23.12      
487.43125   -18.53      -67.13      4.14        -23.05      
487.4875    -17.89      -72.1       4.08        -23.17      
487.54375   -17.13      -66.21      4.03        -23.24      
487.6       -16.38      -65.57      4.0         -23.2       
487.65625   -15.74      -69.7       3.92        -23.09      
487.7125    -15.15      -69.03      3.82        -23.11      
487.76875   -14.58      -64.24      3.77        -23.11      
487.825     -13.96      -64.04      3.69        -23.08      
487.88125   -13.4       -63.15      3.63        -23.14      
487.9375    -12.88      -56.8       3.54        -23.17      
487.99375   -12.38      -64.04      3.44        -23.13      
488.05      -11.86      -68.36      3.37        -22.95      
488.10625   -11.39      -64.87      3.26        -22.99      
488.1625    -10.95      -67.23      3.14        -23.06      
488.21875   -10.55      -70.28      3.03        -23.03      
488.275     -10.14      -64.67      2.91        -23.15      
488.33125   -9.78       -57.46      2.77        -23.16      
488.3875    -9.46       -58.84      2.62        -23.05      
488.44375   -9.09       -65.96      2.46        -23.15      
488.5       -8.83       -58.57      2.32        -23.29      
488.55625   -8.51       -65.47      2.18        -23.19      
488.6125    -8.28       -57.36      2.05        -23.26      
488.66875   -7.98       -61.47      1.89        -23.31      
488.725     -7.75       -62.06      1.74        -23.11      
488.78125   -7.47       -68.85      1.59        -23.16      
488.8375    -7.26       -64.21      1.42        -23.11      
488.89375   -7.02       -61.65      1.23        -23.02      
488.95      -6.83       -71.93      1.05        -23.01      
489.00625   -6.6        -58.3       0.85        -23.02      
489.0625    -6.46       -62.65      0.69        -23.15      
489.11875   -6.29       -81.29      0.49        -23.02      
489.175     -6.16       -71.15      0.31        -22.97      
489.23125   -6.02       -91.0       0.14        -23.07      
489.2875    -5.91       -64.18      -0.05       -23.14      
489.34375   -5.78       -61.23      -0.26       -23.25      
489.4       -5.64       -60.37      -0.44       -23.17      
489.45625   -5.5        -67.85      -0.6        -23.0       
489.5125    -5.39       -69.57      -0.8        -23.1       
489.56875   -5.26       -58.28      -0.97       -23.09      
489.625     -5.15       -61.16      -1.19       -23.28      
489.68125   -5.09       -56.96      -1.35       -23.14      
489.7375    -4.96       -66.75      -1.54       -23.27      
489.79375   -4.89       -78.05      -1.73       -23.1       
489.85      -4.8        -65.56      -1.91       -23.12      
489.90625   -4.69       -62.1       -2.11       -23.12      
489.9625    -4.64       -67.07      -2.3        -23.18      
490.01875   -4.58       -66.79      -2.47       -23.12      
490.075     -4.5        -59.49      -2.68       -23.11      
490.13125   -4.41       -61.24      -2.85       -23.19      
490.1875    -4.32       -67.61      -3.07       -23.32      
490.24375   -4.25       -56.26      -3.27       -23.19      
490.3       -4.18       -58.51      -3.49       -23.11      
490.35625   -4.12       -58.27      -3.71       -23.15      
490.4125    -4.04       -69.15      -3.88       -23.2       
490.46875   -3.99       -65.89      -4.07       -23.22      
490.525     -3.93       -59.66      -4.28       -23.3       
490.58125   -3.9        -63.42      -4.5        -23.18      
490.6375    -3.86       -63.67      -4.72       -23.29      
490.69375   -3.8        -62.02      -4.91       -23.34      
490.75      -3.77       -68.57      -5.13       -23.34      
490.80625   -3.72       -71.77      -5.33       -23.23      
490.8625    -3.68       -60.33      -5.56       -23.24      
490.91875   -3.65       -63.47      -5.76       -23.24      
490.975     -3.59       -59.5       -5.98       -23.28      
491.03125   -3.57       -58.31      -6.21       -23.08      
491.0875    -3.53       -57.77      -6.44       -23.27      
491.14375   -3.49       -72.94      -6.64       -23.1       
491.2       -3.5        -67.52      -6.85       -23.11      
491.25625   -3.47       -61.75      -7.03       -23.02      
491.3125    -3.46       -68.32      -7.23       -23.0       
491.36875   -3.42       -83.05      -7.45       -23.07      
491.425     -3.39       -69.5       -7.65       -23.16      
491.48125   -3.38       -57.61      -7.83       -23.04      
491.5375    -3.35       -64.07      -7.99       -23.18      
491.59375   -3.33       -56.17      -8.22       -23.26      
491.65      -3.3        -65.4       -8.4        -23.17      
491.70625   -3.3        -56.75      -8.57       -23.05      
491.7625    -3.28       -65.75      -8.79       -23.24      
491.81875   -3.28       -62.3       -8.94       -23.08      
491.875     -3.24       -63.63      -9.16       -23.17      
491.93125   -3.24       -64.33      -9.3        -23.11      
491.9875    -3.22       -72.26      -9.51       -23.14      
492.04375   -3.2        -64.44      -9.72       -23.26      
492.1       -3.2        -63.04      -9.9        -23.37      
492.15625   -3.18       -63.23      -10.06      -23.4       
492.2125    -3.18       -63.31      -10.28      -23.39      
492.26875   -3.16       -61.38      -10.44      -23.21      
492.325     -3.13       -65.9       -10.62      -23.16      
492.38125   -3.11       -63.17      -10.82      -23.04      
492.4375    -3.11       -65.11      -10.99      -23.13      
492.49375   -3.11       -60.06      -11.17      -23.07      
492.55      -3.06       -69.29      -11.33      -23.05      
492.60625   -3.05       -74.75      -11.5       -23.13      
492.6625    -3.04       -60.4       -11.67      -23.08      
492.71875   -3.05       -73.55      -11.88      -23.16      
492.775     -3.03       -58.0       -12.02      -23.16      
492.83125   -3.02       -76.53      -12.24      -23.12      
492.8875    -3.01       -65.12      -12.47      -23.27      
492.94375   -3.01       -66.79      -12.57      -23.18      
493.0       -3.01       -68.89      -12.85      -23.2       
493.05625   -3.0        -60.98      -13.03      -23.27      
493.1125    -3.0        -63.35      -13.17      -23.3       
493.16875   -2.99       -64.88      -13.38      -23.37      
493.225     -2.98       -68.08      -13.59      -23.11      
493.28125   -2.98       -61.06      -13.81      -23.21      
493.3375    -2.98       -63.01      -13.97      -23.16      
493.39375   -3.0        -60.21      -14.15      -23.16      
493.45      -2.99       -56.02      -14.34      -23.09      
493.50625   -2.97       -67.92      -14.49      -23.05      
493.5625    -2.97       -68.82      -14.69      -23.05      
493.61875   -2.94       -61.42      -14.9       -23.22      
493.675     -2.95       -71.69      -15.03      -23.26      
493.73125   -2.94       -64.82      -15.29      -23.27      
493.7875    -2.92       -71.61      -15.39      -23.2       
493.84375   -2.9        -57.39      -15.61      -23.31      
493.9       -2.91       -57.13      -15.75      -23.17      
493.95625   -2.9        -59.16      -15.92      -23.28      
494.0125    -2.92       -64.27      -16.08      -23.15      
494.06875   -2.89       -73.04      -16.28      -23.21      
494.125     -2.89       -62.47      -16.43      -23.27      
494.18125   -2.9        -58.18      -16.66      -23.23      
494.2375    -2.9        -60.67      -16.73      -23.22      
494.29375   -2.89       -77.87      -16.91      -23.28      
494.35      -2.88       -82.94      -17.13      -23.25      
494.40625   -2.91       -66.1       -17.34      -23.19      
494.4625    -2.86       -66.29      -17.45      -23.16      
494.51875   -2.85       -61.55      -17.65      -23.36      
494.575     -2.88       -59.95      -17.84      -23.33      
494.63125   -2.86       -60.68      -17.98      -23.18      
494.6875    -2.85       -64.63      -18.1       -23.06      
494.74375   -2.84       -65.42      -18.28      -23.08      
494.8       -2.84       -69.31      -18.37      -23.05      
494.85625   -2.86       -62.84      -18.6       -23.13      
494.9125    -2.84       -64.47      -18.77      -23.13      
494.96875   -2.84       -59.4       -18.91      -23.27      
495.025     -2.84       -64.33      -19.18      -23.23      
495.08125   -2.84       -59.24      -19.35      -23.18      
495.1375    -2.84       -64.68      -19.47      -23.23      
495.19375   -2.83       -68.94      -19.71      -23.2       
495.25      -2.82       -64.85      -19.83      -23.39      
495.30625   -2.83       -67.63      -20.07      -23.31      
495.3625    -2.83       -67.45      -20.18      -23.21      
495.41875   -2.82       -56.36      -20.43      -23.3       
495.475     -2.81       -59.27      -20.57      -23.24      
495.53125   -2.81       -74.76      -20.75      -23.11      
495.5875    -2.8        -59.66      -21.0       -23.19      
495.64375   -2.79       -67.58      -21.06      -23.23      
495.7       -2.79       -64.9       -21.38      -23.32      
495.75625   -2.8        -77.24      -21.64      -23.3       
495.8125    -2.8        -55.69      -21.72      -23.52      
495.86875   -2.79       -60.55      -22.03      -23.17      
495.925     -2.8        -61.59      -22.09      -23.32      
495.98125   -2.8        -59.98      -22.26      -23.26      
496.0375    -2.8        -61.61      -22.4       -23.36      
496.09375   -2.81       -76.18      -22.71      -23.42      
496.15      -2.82       -82.48      -22.96      -23.33      
496.20625   -2.81       -63.25      -23.14      -23.26      
496.2625    -2.82       -60.55      -23.25      -23.4       
496.31875   -2.8        -63.08      -23.43      -23.29      
496.375     -2.79       -65.05      -23.54      -23.19      
496.43125   -2.82       -62.68      -23.6       -23.35      
496.4875    -2.81       -67.03      -23.54      -23.35      
496.54375   -2.79       -84.67      -23.84      -23.44      
496.6       -2.81       -63.33      -23.92      -23.17      
496.65625   -2.78       -64.51      -24.07      -23.41      
496.7125    -2.79       -65.71      -24.23      -23.28      
496.76875   -2.78       -63.07      -24.39      -23.28      
496.825     -2.8        -63.4       -24.55      -23.32      
496.88125   -2.79       -65.47      -24.62      -23.41      
496.9375    -2.8        -60.2       -24.57      -23.32      
496.99375   -2.8        -60.57      -24.74      -23.27      
497.05      -2.8        -57.26      -24.88      -23.4       
497.10625   -2.8        -55.63      -24.94      -23.34      
497.1625    -2.8        -71.21      -24.94      -23.43      
497.21875   -2.81       -74.11      -25.35      -23.38      
497.275     -2.79       -63.83      -25.65      -23.35      
497.33125   -2.83       -63.18      -25.55      -23.41      
497.3875    -2.84       -62.33      -25.9       -23.43      
497.44375   -2.83       -73.11      -25.83      -23.38      
497.5       -2.84       -62.72      -25.98      -23.33      
497.55625   -2.84       -68.34      -26.05      -23.35      
497.6125    -2.83       -63.54      -25.95      -23.28      
497.66875   -2.83       -59.61      -26.01      -23.49      
497.725     -2.84       -63.18      -26.01      -23.31      
497.78125   -2.82       -58.17      -26.24      -23.17      
497.8375    -2.83       -65.23      -26.32      -23.48      
497.89375   -2.83       -68.34      -26.47      -23.51      
497.95      -2.84       -63.66      -26.7       -23.36      
498.00625   -2.86       -74.35      -27.01      -23.46      
498.0625    -2.82       -56.07      -26.91      -23.52      
498.11875   -2.83       -64.89      -27.06      -23.63      
498.175     -2.83       -59.79      -27.07      -23.42      
498.23125   -2.82       -63.22      -26.98      -23.41      
498.2875    -2.8        -65.01      -27.31      -23.31      
498.34375   -2.81       -62.69      -27.27      -23.56      
498.4       -2.79       -60.26      -27.31      -23.62      
498.45625   -2.8        -59.86      -27.33      -23.49      
498.5125    -2.8        -54.43      -27.58      -23.51      
498.56875   -2.8        -66.49      -27.56      -23.5       
498.625     -2.8        -63.75      -27.51      -23.37      
498.68125   -2.81       -61.71      -27.77      -23.45      
498.7375    -2.81       -62.56      -27.82      -23.58      
498.79375   -2.83       -59.71      -27.87      -23.53      
498.85      -2.83       -56.89      -27.9       -23.38      
498.90625   -2.82       -66.39      -27.98      -23.31      
498.9625    -2.84       -56.86      -27.66      -23.51      
499.01875   -2.83       -62.84      -27.58      -23.32      
499.075     -2.82       -59.45      -27.62      -23.44      
499.13125   -2.82       -59.41      -27.71      -23.48      
499.1875    -2.81       -75.97      -27.68      -23.41      
499.24375   -2.84       -62.58      -28.13      -23.36      
499.3       -2.8        -65.41      -28.42      -23.6       
499.35625   -2.83       -59.5       -28.25      -23.51      
499.4125    -2.82       -63.66      -28.24      -23.56      
499.46875   -2.83       -63.06      -28.55      -23.43      
499.525     -2.83       -63.0       -28.4       -23.58      
499.58125   -2.82       -62.19      -28.53      -23.42      
499.6375    -2.83       -64.84      -28.78      -23.44      
499.69375   -2.83       -58.97      -28.96      -23.42      
499.75      -2.83       -63.87      -29.06      -23.41      
499.80625   -2.83       -66.93      -29.02      -23.48      
499.8625    -2.83       -60.36      -28.8       -23.48      
499.91875   -2.83       -63.29      -29.0       -23.52      
499.975     -2.83       -63.42      -29.29      -23.46      
500.03125   -2.81       -67.4       -29.51      -23.5       
500.0875    -2.81       -62.7       -29.29      -23.66      
500.14375   -2.8        -70.83      -29.35      -23.6       
500.2       -2.82       -62.92      -29.1       -23.6       
500.25625   -2.78       -57.09      -29.5       -23.56      
500.3125    -2.81       -59.19      -29.93      -23.57      
500.36875   -2.8        -58.23      -29.74      -23.56      
500.425     -2.81       -66.27      -30.15      -23.76      
500.48125   -2.82       -66.01      -29.93      -23.63      
500.5375    -2.81       -58.31      -30.28      -23.58      
500.59375   -2.83       -61.35      -30.33      -23.57      
500.65      -2.82       -59.22      -30.63      -23.57      
500.70625   -2.81       -61.09      -30.78      -23.68      
500.7625    -2.81       -62.97      -30.51      -23.57      
500.81875   -2.81       -62.9       -30.79      -23.56      
500.875     -2.82       -57.96      -30.49      -23.48      
500.93125   -2.81       -71.85      -30.4       -23.55      
500.9875    -2.83       -62.2       -30.43      -23.46      
501.04375   -2.82       -59.99      -30.79      -23.45      
501.1       -2.8        -59.74      -30.95      -23.59      
501.15625   -2.83       -66.13      -31.0       -23.51      
501.2125    -2.84       -61.86      -31.0       -23.68      
501.26875   -2.82       -55.11      -31.29      -23.6       
501.325     -2.83       -72.36      -30.94      -23.78      
501.38125   -2.81       -59.35      -30.88      -23.67      
501.4375    -2.81       -62.73      -30.77      -23.78      
501.49375   -2.82       -69.87      -30.96      -23.71      
501.55      -2.83       -59.93      -30.97      -23.83      
501.60625   -2.81       -65.49      -30.92      -23.8       
501.6625    -2.82       -60.89      -30.93      -23.6       
501.71875   -2.8        -61.23      -31.76      -23.72      
501.775     -2.8        -72.02      -31.61      -23.78      
501.83125   -2.81       -75.41      -31.92      -23.67      
501.8875    -2.8        -69.4       -31.73      -23.55      
501.94375   -2.81       -60.81      -31.76      -23.57      
502.0       -2.82       -68.65      -32.21      -23.54      
502.05625   -2.81       -59.11      -32.36      -23.53      
502.1125    -2.81       -57.84      -32.14      -23.55      
502.16875   -2.83       -64.51      -32.05      -23.7       
502.225     -2.86       -62.4       -32.15      -23.7       
502.28125   -2.87       -58.88      -32.0       -23.9       
502.3375    -2.86       -62.3       -31.99      -23.79      
502.39375   -2.86       -61.01      -31.8       -23.78      
502.45      -2.85       -60.91      -32.31      -23.76      
502.50625   -2.89       -77.68      -32.2       -23.78      
502.5625    -2.85       -63.84      -32.15      -23.74      
502.61875   -2.85       -62.23      -32.22      -23.89      
502.675     -2.89       -64.47      -32.36      -23.79      
502.73125   -2.86       -61.56      -32.74      -23.86      
502.7875    -2.84       -67.69      -32.46      -23.79      
502.84375   -2.86       -71.0       -32.73      -23.94      
502.9       -2.85       -56.66      -32.44      -23.89      
502.95625   -2.88       -62.45      -32.64      -23.88      
503.0125    -2.85       -63.9       -32.76      -23.93      
503.06875   -2.86       -65.24      -32.66      -23.78      
503.125     -2.84       -58.86      -32.67      -23.8       
503.18125   -2.86       -56.8       -33.08      -23.77      
503.2375    -2.83       -61.28      -32.73      -23.66      
503.29375   -2.84       -62.32      -32.77      -23.82      
503.35      -2.84       -70.72      -32.76      -23.76      
503.40625   -2.85       -60.22      -33.12      -23.84      
503.4625    -2.85       -72.12      -33.32      -23.62      
503.51875   -2.86       -72.87      -33.05      -23.72      
503.575     -2.87       -66.58      -32.71      -23.63      
503.63125   -2.87       -63.75      -32.95      -23.64      
503.6875    -2.89       -61.95      -32.95      -23.65      
503.74375   -2.89       -76.02      -33.07      -23.8       
503.8       -2.91       -67.18      -33.39      -23.81      
503.85625   -2.9        -63.78      -33.05      -23.77      
503.9125    -2.88       -60.15      -33.24      -23.83      
503.96875   -2.89       -57.86      -33.15      -23.83      
504.025     -2.9        -56.7       -33.17      -23.93      
504.08125   -2.91       -65.64      -33.64      -23.88      
504.1375    -2.91       -71.31      -33.31      -23.89      
504.19375   -2.94       -69.45      -33.15      -23.88      
504.25      -2.95       -64.39      -33.75      -23.99      
504.30625   -2.95       -65.43      -33.78      -23.9       
504.3625    -2.95       -62.64      -33.48      -24.01      
504.41875   -2.95       -63.82      -33.39      -23.94      
504.475     -2.9        -67.24      -33.7       -23.88      
504.53125   -2.94       -64.57      -33.58      -23.9       
504.5875    -2.91       -61.99      -33.48      -23.89      
504.64375   -2.92       -58.33      -33.87      -23.77      
504.7       -2.95       -66.98      -33.49      -23.94      
504.75625   -2.92       -67.37      -32.94      -23.77      
504.8125    -2.97       -67.34      -33.34      -23.8       
504.86875   -2.94       -66.88      -33.75      -23.81      
504.925     -2.95       -76.76      -33.05      -24.1       
504.98125   -2.97       -66.57      -33.48      -23.91      
505.0375    -2.95       -64.37      -33.38      -23.99      
505.09375   -2.96       -62.23      -33.3       -24.02      
505.15      -2.97       -66.1       -33.13      -24.13      
505.20625   -2.98       -64.32      -33.11      -23.91      
505.2625    -2.97       -59.19      -33.78      -24.06      
505.31875   -2.99       -61.79      -33.53      -23.91      
505.375     -2.97       -63.98      -33.74      -24.15      
505.43125   -2.98       -65.47      -33.88      -24.04      
505.4875    -3.0        -69.27      -33.47      -24.03      
505.54375   -2.99       -64.21      -33.46      -24.09      
505.6       -3.0        -72.01      -33.2       -23.83      
505.65625   -3.0        -64.95      -33.25      -23.91      
505.7125    -2.99       -59.64      -32.82      -23.86      
505.76875   -3.02       -60.41      -32.92      -23.91      
505.825     -3.0        -70.93      -33.35      -23.97      
505.88125   -3.0        -56.98      -33.1       -23.86      
505.9375    -3.01       -63.04      -33.15      -23.96      
505.99375   -3.01       -61.34      -33.74      -23.94      
506.05      -3.02       -62.7       -32.96      -23.96      
506.10625   -3.04       -59.62      -33.35      -23.92      
506.1625    -3.04       -68.1       -33.93      -23.94      
506.21875   -3.02       -72.5       -33.54      -23.97      
506.275     -3.04       -67.71      -33.88      -23.96      
506.33125   -3.06       -64.74      -33.99      -23.9       
506.3875    -3.01       -59.49      -33.96      -23.97      
506.44375   -3.06       -61.59      -34.05      -23.91      
506.5       -3.08       -61.6       -33.8       -24.01      
506.55625   -3.07       -60.94      -33.09      -23.98      
506.6125    -3.05       -62.95      -33.38      -24.08      
506.66875   -3.08       -59.91      -33.3       -24.03      
506.725     -3.04       -61.5       -33.21      -24.15      
506.78125   -3.06       -69.18      -33.07      -23.98      
506.8375    -3.09       -57.37      -33.47      -23.91      
506.89375   -3.09       -62.69      -32.66      -24.0       
506.95      -3.07       -62.63      -32.96      -23.97      
507.00625   -3.1        -62.24      -32.42      -23.93      
507.0625    -3.11       -65.38      -32.7       -23.89      
507.11875   -3.09       -62.2       -33.3       -24.0       
507.175     -3.1        -59.8       -33.13      -24.01      
507.23125   -3.09       -58.37      -32.8       -24.11      
507.2875    -3.11       -65.04      -32.98      -23.97      
507.34375   -3.12       -60.93      -33.63      -24.05      
507.4       -3.11       -64.61      -33.08      -23.87      
507.45625   -3.16       -60.54      -32.83      -23.99      
507.5125    -3.15       -63.18      -33.09      -24.03      
507.56875   -3.17       -65.04      -32.93      -24.27      
507.625     -3.18       -68.05      -32.91      -23.91      
507.68125   -3.16       -57.14      -33.46      -24.07      
507.7375    -3.14       -63.72      -32.66      -24.17      
507.79375   -3.16       -62.79      -32.68      -24.0       
507.85      -3.16       -66.6       -32.63      -23.94      
507.90625   -3.15       -68.45      -32.56      -24.18      
507.9625    -3.17       -56.17      -32.29      -24.07      
508.01875   -3.18       -67.5       -32.52      -24.05      
508.075     -3.16       -63.48      -32.51      -24.18      
508.13125   -3.16       -64.93      -32.8       -24.12      
508.1875    -3.17       -69.36      -32.65      -24.13      
508.24375   -3.19       -57.4       -32.4       -24.17      
508.3       -3.17       -70.03      -32.43      -24.09      
508.35625   -3.19       -63.31      -32.48      -24.14      
508.4125    -3.2        -72.86      -32.8       -24.21      
508.46875   -3.19       -57.68      -32.77      -24.15      
508.525     -3.21       -60.58      -32.72      -24.18      
508.58125   -3.21       -76.19      -33.03      -24.26      
508.6375    -3.23       -61.98      -32.87      -24.35      
508.69375   -3.22       -61.9       -32.75      -24.15      
508.75      -3.21       -57.69      -32.34      -24.12      
508.80625   -3.24       -64.49      -32.83      -24.31      
508.8625    -3.24       -61.91      -32.9       -24.16      
508.91875   -3.27       -61.49      -32.77      -24.22      
508.975     -3.27       -55.66      -32.62      -24.11      
509.03125   -3.28       -75.1       -32.63      -24.1       
509.0875    -3.31       -62.09      -32.58      -24.2       
509.14375   -3.29       -69.31      -32.52      -24.14      
509.2       -3.31       -62.96      -32.43      -24.08      
509.25625   -3.26       -59.96      -32.89      -23.91      
509.3125    -3.24       -55.88      -32.64      -24.27      
509.36875   -3.21       -58.8       -32.49      -24.17      
509.425     -3.27       -61.45      -32.53      -24.17      
509.48125   -3.24       -64.79      -32.24      -24.29      
509.5375    -3.25       -56.59      -32.33      -24.33      
509.59375   -3.24       -61.31      -32.89      -24.34      
509.65      -3.25       -72.41      -32.83      -24.27      
509.70625   -3.25       -69.38      -33.6       -24.27      
509.7625    -3.28       -67.13      -33.13      -24.25      
509.81875   -3.3        -80.28      -33.22      -24.4       
509.875     -3.32       -63.46      -32.54      -24.34      
509.93125   -3.3        -68.01      -33.22      -24.47      
509.9875    -3.33       -59.82      -33.04      -24.3       
510.04375   -3.3        -58.42      -32.61      -24.35      
510.1       -3.31       -70.07      -33.07      -24.33      
510.15625   -3.32       -64.3       -32.96      -24.47      
510.2125    -3.35       -62.79      -32.85      -24.15      
510.26875   -3.32       -62.61      -32.42      -24.23      
510.325     -3.34       -67.35      -33.3       -24.33      
510.38125   -3.33       -63.45      -32.89      -24.26      
510.4375    -3.38       -63.04      -32.24      -24.1       
510.49375   -3.33       -71.57      -32.8       -24.19      
510.55      -3.36       -61.74      -33.09      -24.15      
510.60625   -3.34       -58.31      -33.14      -24.16      
510.6625    -3.3        -72.97      -32.99      -24.17      
510.71875   -3.31       -68.01      -33.07      -24.22      
510.775     -3.3        -69.38      -32.76      -24.27      
510.83125   -3.32       -60.66      -32.96      -24.26      
510.8875    -3.32       -58.57      -32.69      -24.28      
510.94375   -3.33       -67.26      -32.64      -24.28      
511.0       -3.34       -62.27      -33.01      -24.19      
511.05625   -3.35       -54.95      -33.28      -24.54      
511.1125    -3.36       -60.47      -33.39      -24.33      
511.16875   -3.37       -75.85      -33.77      -24.2       
511.225     -3.39       -75.85      -34.1       -24.17      
511.28125   -3.39       -66.56      -34.52      -24.28      
511.3375    -3.38       -56.27      -33.94      -24.12      
511.39375   -3.37       -63.96      -33.89      -24.18      
511.45      -3.36       -65.69      -33.91      -24.13      
511.50625   -3.35       -61.19      -34.05      -24.27      
511.5625    -3.35       -61.51      -33.24      -24.32      
511.61875   -3.35       -59.9       -33.72      -24.38      
511.675     -3.33       -67.34      -33.22      -24.35      
511.73125   -3.31       -67.93      -33.66      -24.38      
511.7875    -3.37       -68.24      -33.85      -24.31      
511.84375   -3.32       -61.79      -33.57      -24.49      
511.9       -3.32       -60.82      -33.85      -24.18      
511.95625   -3.34       -63.33      -34.09      -24.46      
512.0125    -3.33       -62.15      -33.71      -24.35      
512.06875   -3.34       -62.96      -34.22      -24.32      
512.125     -3.32       -63.6       -34.66      -24.37      
512.18125   -3.34       -61.68      -34.75      -24.51      
512.2375    -3.35       -63.99      -34.48      -24.3       
512.29375   -3.36       -54.92      -34.32      -24.48      
512.35      -3.37       -63.24      -34.29      -24.33      
512.40625   -3.36       -60.27      -34.26      -24.31      
512.4625    -3.36       -75.25      -34.61      -24.48      
512.51875   -3.4        -78.7       -34.65      -24.48      
512.575     -3.4        -57.9       -34.56      -24.36      
512.63125   -3.37       -57.29      -35.23      -24.34      
512.6875    -3.37       -63.16      -34.92      -24.45      
512.74375   -3.37       -56.27      -35.82      -24.4       
512.8       -3.37       -59.56      -35.88      -24.28      
512.85625   -3.34       -64.33      -35.58      -24.37      
512.9125    -3.35       -70.39      -35.04      -24.26      
512.96875   -3.34       -63.69      -35.04      -24.33      
513.025     -3.36       -62.82      -35.69      -24.3       
513.08125   -3.32       -68.03      -35.33      -24.45      
513.1375    -3.36       -64.16      -35.66      -24.38      
513.19375   -3.36       -74.34      -36.03      -24.21      
513.25      -3.36       -62.96      -36.02      -24.28      
513.30625   -3.36       -55.77      -35.68      -24.21      
513.3625    -3.39       -63.33      -36.01      -24.25      
513.41875   -3.38       -65.56      -35.8       -24.19      
513.475     -3.35       -59.11      -36.26      -24.3       
513.53125   -3.34       -57.97      -36.02      -24.28      
513.5875    -3.33       -67.38      -35.97      -24.39      
513.64375   -3.33       -63.6       -35.76      -24.25      
513.7       -3.33       -66.55      -36.15      -24.36      
513.75625   -3.31       -73.73      -36.01      -24.18      
513.8125    -3.33       -67.92      -35.88      -24.21      
513.86875   -3.34       -58.93      -36.15      -24.27      
513.925     -3.34       -61.62      -36.61      -24.42      
513.98125   -3.37       -70.15      -36.36      -24.32      
514.0375    -3.37       -59.57      -36.03      -24.33      
514.09375   -3.35       -59.86      -36.7       -24.4       
514.15      -3.36       -77.15      -36.43      -24.38      
514.20625   -3.34       -58.06      -37.26      -24.37      
514.2625    -3.37       -66.17      -36.58      -24.4       
514.31875   -3.38       -66.51      -36.76      -24.57      
514.375     -3.36       -63.04      -36.53      -24.48      
514.43125   -3.35       -55.57      -37.47      -24.43      
514.4875    -3.34       -67.49      -38.26      -24.4       
514.54375   -3.34       -82.97      -37.53      -24.41      
514.6       -3.34       -56.72      -36.58      -24.58      
514.65625   -3.37       -60.17      -37.38      -24.52      
514.7125    -3.33       -74.05      -37.0       -24.48      
514.76875   -3.34       -55.47      -37.73      -24.48      
514.825     -3.34       -57.24      -37.7       -24.47      
514.88125   -3.35       -64.98      -38.08      -24.43      
514.9375    -3.34       -61.9       -37.61      -24.54      
514.99375   -3.32       -62.79      -38.06      -24.45      
515.05      -3.34       -61.33      -37.56      -24.45      
515.10625   -3.33       -61.26      -37.8       -24.39      
515.1625    -3.34       -63.77      -38.42      -24.43      
515.21875   -3.33       -65.8       -38.88      -24.49      
515.275     -3.31       -64.02      -37.91      -24.34      
515.33125   -3.35       -60.84      -37.99      -24.54      
515.3875    -3.35       -62.28      -38.04      -24.34      
515.44375   -3.34       -65.76      -38.97      -24.64      
515.5       -3.33       -65.31      -38.07      -24.57      
515.55625   -3.35       -58.02      -38.67      -24.47      
515.6125    -3.33       -60.69      -39.0       -24.52      
515.66875   -3.33       -60.52      -39.67      -24.52      
515.725     -3.32       -67.13      -39.38      -24.41      
515.78125   -3.34       -71.86      -39.66      -24.41      
515.8375    -3.31       -64.09      -39.34      -24.41      
515.89375   -3.32       -73.24      -39.41      -24.4       
515.95      -3.33       -64.1       -39.73      -24.56      
516.00625   -3.34       -55.39      -40.61      -24.38      
516.0625    -3.33       -61.63      -39.4       -24.32      
516.11875   -3.35       -62.81      -40.56      -24.34      
516.175     -3.37       -62.97      -41.39      -24.55      
516.23125   -3.37       -55.94      -40.81      -24.4       
516.2875    -3.35       -66.22      -40.82      -24.47      
516.34375   -3.36       -64.84      -41.42      -24.34      
516.4       -3.35       -67.47      -41.03      -24.33      
516.45625   -3.34       -62.29      -40.3       -24.42      
516.5125    -3.31       -66.45      -39.93      -24.59      
516.56875   -3.32       -66.97      -40.55      -24.51      
516.625     -3.3        -63.27      -40.57      -24.39      
516.68125   -3.32       -62.13      -41.97      -24.4       
516.7375    -3.3        -67.69      -40.96      -24.51      
516.79375   -3.3        -64.08      -40.46      -24.57      
516.85      -3.28       -61.17      -41.59      -24.56      
516.90625   -3.3        -58.41      -41.79      -24.54      
516.9625    -3.29       -65.99      -41.82      -24.34      
517.01875   -3.3        -65.14      -43.09      -24.51      
517.075     -3.29       -66.85      -41.7       -24.43      
517.13125   -3.27       -62.23      -42.18      -24.39      
517.1875    -3.27       -64.45      -41.76      -24.31      
517.24375   -3.3        -59.53      -42.15      -24.43      
517.3       -3.31       -59.76      -41.6       -24.4       
517.35625   -3.3        -61.68      -42.93      -24.48      
517.4125    -3.31       -60.28      -41.78      -24.31      
517.46875   -3.34       -63.46      -41.39      -24.36      
517.525     -3.33       -64.28      -43.03      -24.45      
517.58125   -3.35       -64.42      -42.79      -24.46      
517.6375    -3.33       -58.95      -44.11      -24.74      
517.69375   -3.35       -63.6       -43.08      -24.38      
517.75      -3.36       -58.3       -43.04      -24.53      
517.80625   -3.33       -60.8       -44.43      -24.59      
517.8625    -3.34       -59.85      -44.65      -24.49      
517.91875   -3.33       -53.73      -46.52      -24.64      
517.975     -3.33       -57.87      -44.64      -24.5       
518.03125   -3.3        -57.74      -46.23      -24.47      
518.0875    -3.28       -59.96      -46.62      -24.53      
518.14375   -3.29       -62.02      -43.72      -24.58      
518.2       -3.29       -77.97      -45.52      -24.5       
518.25625   -3.3        -63.14      -44.3       -24.42      
518.3125    -3.29       -66.44      -45.45      -24.6       
518.36875   -3.29       -63.81      -45.73      -24.58      
518.425     -3.3        -57.73      -44.1       -24.44      
518.48125   -3.26       -59.04      -45.62      -24.38      
518.5375    -3.31       -57.72      -45.87      -24.28      
518.59375   -3.3        -64.36      -45.9       -24.14      
518.65      -3.27       -66.09      -46.22      -24.38      
518.70625   -3.27       -64.37      -44.27      -24.25      
518.7625    -3.3        -58.03      -46.4       -24.37      
518.81875   -3.31       -68.74      -46.89      -24.34      
518.875     -3.32       -61.93      -45.16      -24.54      
518.93125   -3.31       -73.03      -44.7       -24.58      
518.9875    -3.31       -63.01      -45.06      -24.34      
519.04375   -3.33       -64.76      -45.34      -24.58      
519.1       -3.33       -69.26      -45.43      -24.52      
519.15625   -3.33       -67.92      -46.48      -24.57      
519.2125    -3.33       -67.9       -45.34      -24.5       
519.26875   -3.29       -60.52      -47.76      -24.59      
519.325     -3.3        -60.55      -47.85      -24.43      
519.38125   -3.3        -58.41      -46.96      -24.52      
519.4375    -3.27       -63.79      -48.41      -24.57      
519.49375   -3.27       -65.99      -48.86      -24.59      
519.55      -3.27       -57.54      -47.62      -24.42      
519.60625   -3.25       -69.81      -48.65      -24.48      
519.6625    -3.25       -61.76      -48.58      -24.52      
519.71875   -3.26       -80.46      -51.84      -24.33      
519.775     -3.27       -66.04      -49.59      -24.45      
519.83125   -3.26       -64.79      -54.06      -24.5       
519.8875    -3.26       -61.6       -54.5       -24.36      
519.94375   -3.26       -67.17      -51.84      -24.36      
520.0       -3.27       -57.71      -53.3       -24.35      
