TESTE DA PLACA: RFFE

Operador: Fernando
Numero de Serie: 11111222
RFFE Software Version: V
RFFE - IP: 10.0.18.199
RFFE - Communication: OK
Start Time: 24-02-2017 11:44:34
End Time: 24-02-2017 11:44:34
Duracao do Teste: 6.5821 min

Set-up Info:
Network Analyzer Model: E5062A
Network Analyzer - IP: 10.0.18.66
Network Analyzer - Communication: OK
Waveform Generator Model: 33500B
Waveform Generator - IP: 10.0.18.69
Waveform Generator - Communication: OK
RF Switch Model: RC-2SP4T-A18
RF Switch1 - IP: 10.0.18.68
RF Switch1 - Communication: OK
RF Switch2 - IP: 10.0.18.50
RF Switch2 - Communication: OK
DC Power Supply Model: 6626A

RESULTS:

RFFE Ch: 3-4

Freq [MHz]  S11 [dB]    S12 [dB]    S21 [dB]    S22 [dB]    
430.0       -3.11       -64.62      -59.74      -19.77      
430.05625   -3.09       -55.27      -64.66      -19.74      
430.1125    -3.1        -68.57      -66.62      -19.83      
430.16875   -3.1        -61.42      -56.61      -19.81      
430.225     -3.11       -62.08      -60.4       -19.78      
430.28125   -3.09       -74.49      -57.26      -19.86      
430.3375    -3.09       -63.48      -65.49      -19.79      
430.39375   -3.09       -71.92      -64.36      -19.84      
430.45      -3.09       -72.47      -67.03      -19.82      
430.50625   -3.11       -69.0       -82.37      -19.78      
430.5625    -3.09       -60.35      -62.69      -19.81      
430.61875   -3.07       -58.23      -53.26      -19.96      
430.675     -3.08       -54.42      -73.75      -19.82      
430.73125   -3.06       -76.75      -63.27      -19.81      
430.7875    -3.07       -58.25      -75.87      -19.68      
430.84375   -3.05       -61.38      -74.83      -19.74      
430.9       -3.05       -66.67      -59.38      -19.78      
430.95625   -3.08       -63.01      -61.5       -19.76      
431.0125    -3.07       -62.72      -59.34      -19.74      
431.06875   -3.09       -60.79      -68.98      -19.73      
431.125     -3.08       -67.55      -63.71      -19.75      
431.18125   -3.09       -67.05      -62.06      -19.82      
431.2375    -3.08       -69.41      -75.75      -19.73      
431.29375   -3.07       -58.24      -65.91      -19.81      
431.35      -3.06       -73.76      -65.73      -19.75      
431.40625   -3.06       -63.05      -69.94      -19.83      
431.4625    -3.06       -65.88      -61.06      -19.8       
431.51875   -3.08       -65.88      -66.93      -19.73      
431.575     -3.1        -64.99      -62.12      -19.83      
431.63125   -3.14       -63.85      -61.35      -19.79      
431.6875    -3.14       -70.59      -64.79      -19.84      
431.74375   -3.13       -63.66      -58.76      -19.77      
431.8       -3.16       -58.12      -63.57      -19.8       
431.85625   -3.12       -87.03      -58.2       -19.87      
431.9125    -3.15       -56.52      -58.78      -19.81      
431.96875   -3.14       -64.96      -71.61      -19.82      
432.025     -3.12       -64.28      -65.27      -19.86      
432.08125   -3.13       -59.85      -58.18      -19.91      
432.1375    -3.16       -61.38      -62.77      -19.87      
432.19375   -3.14       -61.67      -60.21      -19.86      
432.25      -3.19       -65.26      -57.3       -19.9       
432.30625   -3.18       -61.34      -73.18      -19.84      
432.3625    -3.18       -59.71      -65.58      -19.9       
432.41875   -3.16       -56.17      -63.84      -19.8       
432.475     -3.16       -64.24      -54.53      -19.95      
432.53125   -3.18       -61.77      -56.69      -19.86      
432.5875    -3.18       -59.36      -60.49      -19.86      
432.64375   -3.18       -60.99      -61.08      -19.89      
432.7       -3.21       -56.43      -65.69      -19.85      
432.75625   -3.22       -65.09      -71.12      -20.01      
432.8125    -3.24       -65.98      -68.63      -19.92      
432.86875   -3.27       -65.06      -61.12      -19.89      
432.925     -3.27       -61.51      -62.98      -19.89      
432.98125   -3.29       -64.77      -68.07      -19.92      
433.0375    -3.32       -66.67      -57.68      -19.92      
433.09375   -3.27       -66.7       -58.64      -20.0       
433.15      -3.26       -64.21      -71.63      -19.89      
433.20625   -3.26       -58.67      -60.32      -19.84      
433.2625    -3.24       -59.4       -67.04      -19.9       
433.31875   -3.27       -59.79      -61.94      -19.9       
433.375     -3.26       -78.42      -63.82      -19.87      
433.43125   -3.27       -65.18      -60.54      -19.82      
433.4875    -3.27       -65.08      -62.82      -19.87      
433.54375   -3.25       -60.1       -69.71      -19.89      
433.6       -3.24       -64.61      -71.03      -19.88      
433.65625   -3.23       -63.18      -63.34      -19.92      
433.7125    -3.23       -63.05      -66.81      -19.81      
433.76875   -3.24       -62.13      -64.88      -19.84      
433.825     -3.24       -59.63      -62.73      -19.9       
433.88125   -3.26       -62.82      -60.86      -19.88      
433.9375    -3.27       -54.03      -68.44      -19.81      
433.99375   -3.29       -62.7       -68.04      -19.97      
434.05      -3.24       -61.77      -61.1       -19.82      
434.10625   -3.26       -60.85      -62.25      -19.94      
434.1625    -3.24       -59.85      -63.54      -19.87      
434.21875   -3.24       -65.23      -62.92      -19.93      
434.275     -3.23       -70.21      -59.61      -19.96      
434.33125   -3.21       -67.11      -60.27      -19.94      
434.3875    -3.26       -62.22      -60.56      -19.98      
434.44375   -3.25       -67.93      -64.9       -20.0       
434.5       -3.23       -57.44      -68.02      -20.03      
434.55625   -3.25       -72.98      -72.98      -19.99      
434.6125    -3.27       -63.75      -61.72      -19.95      
434.66875   -3.23       -61.14      -64.26      -19.96      
434.725     -3.23       -64.04      -60.57      -19.94      
434.78125   -3.22       -64.96      -59.85      -19.97      
434.8375    -3.23       -64.93      -60.74      -20.03      
434.89375   -3.21       -66.1       -60.27      -19.92      
434.95      -3.2        -73.8       -63.73      -19.96      
435.00625   -3.2        -66.9       -64.12      -19.89      
435.0625    -3.23       -60.4       -67.25      -19.99      
435.11875   -3.21       -80.3       -64.16      -19.94      
435.175     -3.23       -68.8       -59.44      -20.02      
435.23125   -3.22       -64.85      -56.15      -19.97      
435.2875    -3.25       -72.53      -57.38      -19.97      
435.34375   -3.21       -66.18      -61.85      -19.94      
435.4       -3.24       -83.05      -61.52      -20.03      
435.45625   -3.24       -64.19      -61.69      -19.91      
435.5125    -3.25       -60.47      -59.79      -19.97      
435.56875   -3.24       -59.06      -65.48      -19.98      
435.625     -3.25       -64.46      -59.84      -20.0       
435.68125   -3.27       -65.39      -74.15      -19.92      
435.7375    -3.28       -70.48      -59.35      -20.05      
435.79375   -3.27       -63.09      -63.27      -20.03      
435.85      -3.3        -62.93      -65.46      -19.98      
435.90625   -3.25       -57.52      -59.88      -19.98      
435.9625    -3.23       -61.28      -75.13      -19.92      
436.01875   -3.23       -61.02      -59.2       -19.97      
436.075     -3.25       -65.73      -61.48      -19.9       
436.13125   -3.22       -66.52      -67.13      -19.95      
436.1875    -3.23       -62.79      -65.27      -19.89      
436.24375   -3.26       -69.77      -67.38      -19.95      
436.3       -3.26       -58.96      -61.11      -19.83      
436.35625   -3.27       -67.11      -64.24      -19.94      
436.4125    -3.3        -60.0       -60.88      -20.05      
436.46875   -3.32       -63.05      -57.54      -20.07      
436.525     -3.31       -58.91      -61.35      -19.95      
436.58125   -3.29       -65.91      -60.85      -20.07      
436.6375    -3.31       -57.89      -64.37      -20.01      
436.69375   -3.33       -74.09      -58.46      -20.06      
436.75      -3.33       -61.89      -66.22      -20.11      
436.80625   -3.35       -68.51      -62.31      -20.07      
436.8625    -3.39       -72.37      -61.33      -20.08      
436.91875   -3.36       -62.09      -61.58      -20.03      
436.975     -3.39       -68.04      -63.28      -20.05      
437.03125   -3.39       -63.75      -64.39      -20.0       
437.0875    -3.38       -61.19      -62.73      -20.12      
437.14375   -3.38       -56.82      -59.41      -20.06      
437.2       -3.41       -67.29      -82.1       -20.05      
437.25625   -3.42       -59.65      -60.05      -20.08      
437.3125    -3.43       -61.71      -70.64      -20.05      
437.36875   -3.48       -54.45      -75.52      -20.08      
437.425     -3.52       -64.44      -64.58      -20.04      
437.48125   -3.49       -69.2       -66.82      -20.11      
437.5375    -3.54       -72.45      -84.01      -20.08      
437.59375   -3.51       -60.91      -67.05      -20.1       
437.65      -3.51       -59.44      -63.35      -20.07      
437.70625   -3.49       -59.56      -65.76      -20.06      
437.7625    -3.49       -62.61      -58.94      -20.15      
437.81875   -3.51       -66.07      -65.72      -20.07      
437.875     -3.48       -67.29      -59.03      -20.19      
437.93125   -3.49       -65.88      -72.85      -20.08      
437.9875    -3.49       -61.08      -59.93      -20.12      
438.04375   -3.51       -55.93      -58.47      -20.12      
438.1       -3.49       -63.57      -64.2       -20.09      
438.15625   -3.49       -58.54      -67.99      -20.13      
438.2125    -3.46       -64.95      -86.36      -20.16      
438.26875   -3.4        -56.42      -61.52      -20.09      
438.325     -3.39       -67.25      -66.17      -20.12      
438.38125   -3.38       -58.92      -58.28      -20.16      
438.4375    -3.36       -64.72      -64.0       -20.19      
438.49375   -3.37       -64.65      -62.99      -20.14      
438.55      -3.36       -78.47      -63.67      -20.13      
438.60625   -3.35       -61.68      -63.86      -20.17      
438.6625    -3.31       -61.4       -69.04      -20.11      
438.71875   -3.31       -71.01      -73.34      -20.18      
438.775     -3.28       -72.96      -72.5       -20.09      
438.83125   -3.26       -59.39      -67.57      -20.15      
438.8875    -3.27       -71.33      -59.9       -20.11      
438.94375   -3.25       -69.08      -69.09      -20.15      
439.0       -3.25       -58.06      -57.89      -20.09      
439.05625   -3.26       -78.0       -60.2       -20.2       
439.1125    -3.26       -67.67      -82.18      -20.2       
439.16875   -3.26       -63.41      -72.54      -20.17      
439.225     -3.29       -79.1       -63.0       -20.11      
439.28125   -3.29       -56.97      -61.75      -20.09      
439.3375    -3.28       -62.35      -61.83      -20.07      
439.39375   -3.26       -61.47      -59.56      -20.15      
439.45      -3.26       -70.75      -62.73      -20.12      
439.50625   -3.27       -65.79      -68.96      -20.15      
439.5625    -3.26       -63.43      -68.67      -20.21      
439.61875   -3.25       -67.83      -57.33      -20.22      
439.675     -3.28       -64.76      -64.46      -20.26      
439.73125   -3.3        -62.17      -62.24      -20.14      
439.7875    -3.28       -65.09      -64.98      -20.27      
439.84375   -3.31       -68.0       -71.67      -20.22      
439.9       -3.31       -62.71      -68.99      -20.26      
439.95625   -3.31       -67.04      -59.35      -20.23      
440.0125    -3.34       -60.63      -66.93      -20.2       
440.06875   -3.34       -66.89      -57.86      -20.23      
440.125     -3.38       -71.4       -56.29      -20.18      
440.18125   -3.43       -63.29      -65.95      -20.21      
440.2375    -3.44       -59.17      -80.26      -20.2       
440.29375   -3.47       -62.07      -58.37      -20.16      
440.35      -3.52       -58.71      -64.9       -20.24      
440.40625   -3.58       -61.25      -68.98      -20.15      
440.4625    -3.58       -60.87      -62.13      -20.28      
440.51875   -3.57       -76.04      -82.5       -20.24      
440.575     -3.58       -58.17      -65.05      -20.23      
440.63125   -3.62       -62.69      -68.4       -20.27      
440.6875    -3.64       -77.44      -66.69      -20.24      
440.74375   -3.67       -60.24      -65.28      -20.2       
440.8       -3.7        -68.38      -66.54      -20.28      
440.85625   -3.72       -66.34      -61.18      -20.24      
440.9125    -3.69       -68.85      -64.54      -20.28      
440.96875   -3.7        -68.84      -57.94      -20.2       
441.025     -3.67       -58.48      -69.39      -20.18      
441.08125   -3.63       -65.27      -63.4       -20.27      
441.1375    -3.57       -64.22      -73.65      -20.26      
441.19375   -3.56       -61.82      -70.09      -20.27      
441.25      -3.48       -68.67      -70.41      -20.24      
441.30625   -3.49       -61.16      -61.8       -20.21      
441.3625    -3.43       -66.41      -60.95      -20.23      
441.41875   -3.42       -62.35      -61.18      -20.25      
441.475     -3.41       -63.71      -65.33      -20.23      
441.53125   -3.39       -62.06      -67.64      -20.08      
441.5875    -3.33       -69.32      -59.62      -20.17      
441.64375   -3.3        -56.5       -65.18      -20.26      
441.7       -3.29       -66.99      -55.34      -20.2       
441.75625   -3.28       -67.73      -60.95      -20.22      
441.8125    -3.28       -64.24      -62.96      -20.16      
441.86875   -3.24       -63.31      -63.58      -20.31      
441.925     -3.24       -77.53      -64.36      -20.33      
441.98125   -3.27       -70.6       -61.6       -20.35      
442.0375    -3.26       -58.42      -62.4       -20.31      
442.09375   -3.26       -72.76      -63.92      -20.32      
442.15      -3.25       -59.12      -57.9       -20.4       
442.20625   -3.22       -56.18      -64.7       -20.28      
442.2625    -3.2        -72.7       -68.27      -20.31      
442.31875   -3.2        -66.12      -68.15      -20.36      
442.375     -3.2        -62.31      -63.11      -20.45      
442.43125   -3.2        -58.37      -66.12      -20.45      
442.4875    -3.18       -59.57      -65.25      -20.46      
442.54375   -3.19       -62.59      -61.57      -20.36      
442.6       -3.18       -63.94      -81.3       -20.43      
442.65625   -3.2        -57.12      -64.67      -20.34      
442.7125    -3.19       -73.17      -62.09      -20.4       
442.76875   -3.18       -68.45      -86.54      -20.43      
442.825     -3.21       -67.63      -67.88      -20.32      
442.88125   -3.21       -69.58      -64.87      -20.32      
442.9375    -3.19       -58.14      -67.11      -20.33      
442.99375   -3.24       -60.53      -58.46      -20.33      
443.05      -3.23       -68.0       -58.9       -20.33      
443.10625   -3.23       -72.05      -71.62      -20.27      
443.1625    -3.22       -71.13      -68.27      -20.38      
443.21875   -3.27       -65.38      -68.11      -20.45      
443.275     -3.26       -69.23      -74.69      -20.41      
443.33125   -3.27       -59.11      -67.59      -20.45      
443.3875    -3.23       -63.51      -59.72      -20.49      
443.44375   -3.24       -65.24      -57.5       -20.39      
443.5       -3.26       -60.7       -66.82      -20.46      
443.55625   -3.27       -57.44      -67.25      -20.45      
443.6125    -3.29       -54.21      -63.11      -20.46      
443.66875   -3.3        -64.3       -69.76      -20.35      
443.725     -3.28       -60.34      -56.18      -20.47      
443.78125   -3.3        -64.02      -57.95      -20.35      
443.8375    -3.29       -77.61      -72.54      -20.37      
443.89375   -3.31       -69.37      -66.62      -20.38      
443.95      -3.3        -55.9       -76.19      -20.37      
444.00625   -3.28       -58.55      -65.14      -20.45      
444.0625    -3.29       -60.21      -63.45      -20.39      
444.11875   -3.28       -67.98      -60.65      -20.3       
444.175     -3.26       -62.79      -55.81      -20.35      
444.23125   -3.27       -61.42      -68.56      -20.41      
444.2875    -3.24       -61.44      -58.94      -20.45      
444.34375   -3.27       -64.83      -65.69      -20.53      
444.4       -3.27       -63.98      -70.08      -20.4       
444.45625   -3.26       -62.87      -64.98      -20.5       
444.5125    -3.25       -78.94      -66.48      -20.6       
444.56875   -3.24       -74.96      -82.56      -20.47      
444.625     -3.23       -54.58      -59.38      -20.44      
444.68125   -3.22       -57.57      -62.78      -20.47      
444.7375    -3.23       -60.09      -64.54      -20.57      
444.79375   -3.21       -68.35      -64.05      -20.57      
444.85      -3.21       -61.42      -64.04      -20.45      
444.90625   -3.23       -58.01      -68.02      -20.49      
444.9625    -3.2        -63.42      -67.87      -20.61      
445.01875   -3.21       -58.45      -91.89      -20.55      
445.075     -3.16       -59.25      -65.91      -20.54      
445.13125   -3.17       -60.52      -61.41      -20.59      
445.1875    -3.15       -62.11      -75.47      -20.59      
445.24375   -3.15       -60.04      -72.1       -20.58      
445.3       -3.17       -66.67      -63.04      -20.61      
445.35625   -3.14       -54.46      -59.43      -20.62      
445.4125    -3.12       -58.29      -64.4       -20.58      
445.46875   -3.12       -65.66      -63.24      -20.58      
445.525     -3.12       -68.85      -59.74      -20.64      
445.58125   -3.11       -67.71      -60.65      -20.66      
445.6375    -3.09       -62.8       -60.43      -20.57      
445.69375   -3.09       -64.49      -60.84      -20.66      
445.75      -3.08       -81.69      -58.35      -20.6       
445.80625   -3.05       -65.57      -65.74      -20.65      
445.8625    -3.07       -57.26      -90.66      -20.59      
445.91875   -3.06       -63.91      -68.87      -20.62      
445.975     -3.04       -70.96      -69.29      -20.63      
446.03125   -3.05       -63.66      -63.04      -20.51      
446.0875    -3.06       -59.72      -67.97      -20.62      
446.14375   -3.03       -59.39      -63.73      -20.57      
446.2       -3.06       -68.66      -60.62      -20.5       
446.25625   -3.05       -62.27      -70.99      -20.6       
446.3125    -3.04       -66.39      -75.57      -20.6       
446.36875   -3.04       -76.11      -57.79      -20.7       
446.425     -3.06       -60.34      -64.57      -20.57      
446.48125   -3.04       -59.89      -66.84      -20.64      
446.5375    -3.04       -71.32      -59.69      -20.74      
446.59375   -3.06       -64.02      -59.28      -20.67      
446.65      -3.05       -56.57      -65.5       -20.66      
446.70625   -3.04       -73.61      -66.02      -20.63      
446.7625    -3.07       -67.54      -66.94      -20.64      
446.81875   -3.04       -61.46      -67.06      -20.74      
446.875     -3.04       -62.81      -64.57      -20.7       
446.93125   -3.04       -60.83      -69.66      -20.78      
446.9875    -3.0        -62.56      -61.71      -20.73      
447.04375   -3.04       -62.17      -53.78      -20.73      
447.1       -3.04       -70.0       -63.39      -20.67      
447.15625   -3.07       -58.26      -60.42      -20.71      
447.2125    -3.05       -58.61      -71.14      -20.71      
447.26875   -3.05       -71.67      -63.07      -20.85      
447.325     -3.06       -65.91      -62.57      -20.77      
447.38125   -3.06       -64.16      -59.26      -20.72      
447.4375    -3.06       -57.69      -59.53      -20.7       
447.49375   -3.07       -73.2       -66.43      -20.71      
447.55      -3.05       -63.01      -64.02      -20.86      
447.60625   -3.05       -65.7       -60.74      -20.67      
447.6625    -3.05       -61.56      -59.45      -20.83      
447.71875   -3.09       -64.94      -58.07      -20.77      
447.775     -3.06       -69.09      -64.1       -20.72      
447.83125   -3.05       -71.31      -60.23      -20.68      
447.8875    -3.05       -68.41      -68.3       -20.79      
447.94375   -3.07       -66.66      -67.2       -20.72      
448.0       -3.02       -77.03      -59.46      -20.71      
448.05625   -3.05       -64.1       -64.86      -20.68      
448.1125    -3.06       -71.99      -58.41      -20.61      
448.16875   -3.06       -69.33      -59.75      -20.76      
448.225     -3.04       -68.92      -61.57      -20.68      
448.28125   -3.04       -77.48      -63.32      -20.72      
448.3375    -3.05       -63.75      -61.97      -20.69      
448.39375   -3.05       -56.76      -63.57      -20.71      
448.45      -3.04       -68.99      -73.99      -20.64      
448.50625   -3.03       -68.58      -62.12      -20.78      
448.5625    -3.02       -78.28      -58.27      -20.72      
448.61875   -3.02       -61.83      -67.59      -20.66      
448.675     -3.02       -62.06      -66.22      -20.63      
448.73125   -3.01       -58.24      -69.03      -20.71      
448.7875    -3.0        -64.41      -60.13      -20.71      
448.84375   -2.99       -57.04      -64.09      -20.64      
448.9       -3.0        -60.03      -57.63      -20.72      
448.95625   -3.0        -66.21      -60.57      -20.74      
449.0125    -2.98       -62.12      -61.45      -20.72      
449.06875   -3.0        -65.81      -65.59      -20.83      
449.125     -3.0        -69.45      -70.46      -20.75      
449.18125   -3.01       -71.0       -58.52      -20.8       
449.2375    -3.01       -66.4       -61.62      -20.72      
449.29375   -3.01       -61.97      -61.86      -20.8       
449.35      -3.0        -73.45      -77.18      -20.69      
449.40625   -3.0        -67.13      -63.67      -20.74      
449.4625    -3.01       -60.46      -64.78      -20.75      
449.51875   -3.01       -71.65      -69.85      -20.7       
449.575     -3.01       -67.65      -69.08      -20.68      
449.63125   -2.99       -57.97      -59.02      -20.76      
449.6875    -2.99       -63.07      -80.28      -20.76      
449.74375   -2.98       -74.49      -61.99      -20.73      
449.8       -2.99       -61.47      -66.44      -20.75      
449.85625   -2.98       -62.67      -71.57      -20.73      
449.9125    -2.99       -64.7       -67.61      -20.75      
449.96875   -3.0        -62.97      -61.34      -20.72      
450.025     -2.97       -56.8       -70.89      -20.8       
450.08125   -2.99       -59.12      -68.43      -20.75      
450.1375    -2.98       -64.59      -60.44      -20.77      
450.19375   -2.99       -61.0       -66.07      -20.83      
450.25      -3.0        -61.99      -60.72      -20.83      
450.30625   -3.02       -65.22      -60.38      -20.86      
450.3625    -3.0        -66.48      -66.21      -20.92      
450.41875   -2.99       -58.08      -74.52      -20.82      
450.475     -2.97       -66.14      -72.36      -20.82      
450.53125   -3.0        -66.09      -60.72      -20.72      
450.5875    -3.02       -72.5       -73.52      -20.83      
450.64375   -3.01       -63.31      -68.9       -20.84      
450.7       -3.02       -67.22      -56.03      -20.78      
450.75625   -3.01       -61.35      -54.05      -20.73      
450.8125    -3.01       -56.88      -92.06      -20.76      
450.86875   -3.03       -59.23      -62.14      -20.78      
450.925     -3.0        -62.01      -62.25      -20.8       
450.98125   -3.03       -57.85      -73.28      -20.85      
451.0375    -3.0        -62.45      -65.02      -20.83      
451.09375   -3.02       -67.87      -65.2       -20.93      
451.15      -3.02       -63.66      -63.31      -20.87      
451.20625   -2.99       -68.22      -68.96      -20.87      
451.2625    -3.03       -62.12      -58.48      -20.79      
451.31875   -3.01       -66.06      -64.42      -20.72      
451.375     -3.04       -65.78      -60.02      -20.76      
451.43125   -3.03       -55.94      -70.81      -20.9       
451.4875    -3.02       -66.73      -63.63      -20.77      
451.54375   -3.02       -65.54      -67.04      -20.84      
451.6       -3.02       -59.4       -64.02      -20.77      
451.65625   -3.03       -64.29      -60.79      -20.9       
451.7125    -3.03       -65.3       -60.89      -20.77      
451.76875   -3.01       -61.15      -61.33      -20.87      
451.825     -3.0        -68.91      -56.83      -20.95      
451.88125   -3.03       -67.36      -59.13      -20.89      
451.9375    -3.03       -68.08      -62.89      -20.88      
451.99375   -3.03       -61.06      -68.59      -20.97      
452.05      -3.03       -68.6       -63.44      -20.92      
452.10625   -3.04       -71.12      -60.44      -20.98      
452.1625    -3.03       -64.62      -59.94      -20.96      
452.21875   -3.01       -59.5       -61.09      -20.92      
452.275     -3.05       -71.05      -61.26      -20.99      
452.33125   -3.04       -60.91      -60.19      -20.84      
452.3875    -3.05       -62.06      -67.35      -20.86      
452.44375   -3.07       -58.42      -60.0       -20.94      
452.5       -3.04       -68.96      -59.16      -20.94      
452.55625   -3.07       -66.53      -66.08      -20.96      
452.6125    -3.07       -57.63      -67.53      -21.0       
452.66875   -3.06       -74.58      -61.35      -20.92      
452.725     -3.07       -55.7       -68.28      -20.92      
452.78125   -3.06       -58.65      -74.96      -20.94      
452.8375    -3.06       -60.16      -58.12      -20.9       
452.89375   -3.03       -67.87      -64.11      -20.99      
452.95      -3.06       -60.53      -65.99      -20.93      
453.00625   -3.06       -78.66      -58.23      -20.89      
453.0625    -3.07       -62.13      -62.84      -21.16      
453.11875   -3.06       -66.65      -71.11      -20.92      
453.175     -3.1        -64.66      -65.13      -20.94      
453.23125   -3.08       -61.15      -70.02      -21.0       
453.2875    -3.1        -55.12      -71.67      -21.07      
453.34375   -3.08       -62.57      -64.38      -20.98      
453.4       -3.09       -64.09      -63.3       -21.02      
453.45625   -3.09       -66.02      -64.27      -21.02      
453.5125    -3.09       -58.83      -64.44      -21.04      
453.56875   -3.09       -59.85      -65.23      -20.95      
453.625     -3.08       -71.91      -64.61      -20.98      
453.68125   -3.09       -72.24      -64.27      -20.95      
453.7375    -3.07       -60.79      -71.35      -21.09      
453.79375   -3.06       -62.26      -64.48      -21.15      
453.85      -3.07       -59.77      -67.27      -21.02      
453.90625   -3.09       -59.48      -68.14      -21.11      
453.9625    -3.08       -67.33      -72.15      -21.05      
454.01875   -3.12       -59.24      -59.05      -21.07      
454.075     -3.11       -64.47      -72.39      -21.12      
454.13125   -3.11       -64.29      -61.88      -21.13      
454.1875    -3.13       -69.86      -61.71      -21.07      
454.24375   -3.12       -69.24      -55.95      -21.01      
454.3       -3.13       -59.85      -66.94      -21.1       
454.35625   -3.15       -61.8       -67.91      -21.1       
454.4125    -3.16       -70.08      -60.67      -21.1       
454.46875   -3.17       -70.5       -66.21      -21.14      
454.525     -3.2        -67.69      -68.8       -21.12      
454.58125   -3.2        -58.42      -60.27      -21.07      
454.6375    -3.26       -56.69      -62.95      -21.03      
454.69375   -3.26       -66.84      -71.26      -21.19      
454.75      -3.25       -56.8       -64.22      -21.11      
454.80625   -3.31       -63.03      -56.05      -21.04      
454.8625    -3.33       -61.15      -63.54      -21.15      
454.91875   -3.36       -73.29      -66.28      -21.08      
454.975     -3.36       -67.9       -66.94      -21.09      
455.03125   -3.39       -64.16      -74.84      -21.02      
455.0875    -3.4        -65.41      -74.02      -21.06      
455.14375   -3.43       -66.01      -70.48      -21.04      
455.2       -3.42       -62.58      -56.56      -21.03      
455.25625   -3.45       -65.44      -51.84      -20.98      
455.3125    -3.41       -59.66      -63.21      -21.04      
455.36875   -3.44       -70.08      -56.64      -21.06      
455.425     -3.41       -72.19      -59.79      -21.05      
455.48125   -3.39       -61.17      -68.39      -21.15      
455.5375    -3.36       -57.82      -64.97      -21.21      
455.59375   -3.33       -61.88      -63.1       -21.03      
455.65      -3.3        -61.52      -60.58      -21.2       
455.70625   -3.25       -81.39      -58.13      -21.14      
455.7625    -3.23       -64.71      -63.9       -21.07      
455.81875   -3.22       -66.35      -57.52      -21.11      
455.875     -3.22       -62.63      -58.79      -21.14      
455.93125   -3.2        -62.14      -68.91      -21.07      
455.9875    -3.18       -58.98      -64.6       -21.09      
456.04375   -3.18       -60.18      -68.68      -21.0       
456.1       -3.17       -64.29      -63.96      -21.16      
456.15625   -3.2        -57.04      -58.2       -21.14      
456.2125    -3.18       -68.96      -63.29      -21.01      
456.26875   -3.2        -67.53      -71.22      -20.99      
456.325     -3.16       -59.33      -62.54      -21.04      
456.38125   -3.17       -60.56      -62.17      -21.12      
456.4375    -3.16       -65.94      -68.6       -21.08      
456.49375   -3.14       -67.87      -77.81      -21.17      
456.55      -3.15       -55.84      -61.99      -21.09      
456.60625   -3.17       -57.5       -68.08      -21.15      
456.6625    -3.16       -68.46      -82.02      -21.1       
456.71875   -3.19       -57.52      -62.69      -21.23      
456.775     -3.18       -61.97      -63.51      -21.16      
456.83125   -3.2        -58.56      -61.82      -21.18      
456.8875    -3.22       -63.08      -56.96      -21.22      
456.94375   -3.24       -64.75      -71.04      -21.12      
457.0       -3.24       -61.83      -70.75      -21.22      
457.05625   -3.24       -75.65      -56.75      -21.15      
457.1125    -3.26       -78.44      -60.46      -21.21      
457.16875   -3.29       -62.73      -59.48      -21.19      
457.225     -3.29       -67.62      -70.12      -21.1       
457.28125   -3.34       -64.57      -67.46      -21.29      
457.3375    -3.4        -60.57      -57.29      -21.17      
457.39375   -3.42       -62.6       -56.31      -21.26      
457.45      -3.48       -62.46      -65.74      -21.1       
457.50625   -3.5        -71.23      -71.4       -21.12      
457.5625    -3.53       -65.37      -63.14      -21.27      
457.61875   -3.58       -60.64      -62.72      -21.21      
457.675     -3.65       -67.0       -61.42      -21.24      
457.73125   -3.73       -61.13      -60.51      -21.36      
457.7875    -3.82       -66.92      -63.5       -21.08      
457.84375   -3.92       -61.16      -55.86      -21.26      
457.9       -4.05       -62.73      -60.85      -21.12      
457.95625   -4.16       -62.44      -55.83      -21.28      
458.0125    -4.2        -58.13      -70.95      -21.22      
458.06875   -4.23       -59.94      -84.39      -21.18      
458.125     -4.24       -63.56      -55.09      -21.34      
458.18125   -4.22       -58.33      -53.04      -21.29      
458.2375    -4.16       -60.71      -56.96      -21.37      
458.29375   -4.11       -60.42      -51.43      -21.25      
458.35      -4.0        -58.64      -56.34      -21.42      
458.40625   -3.88       -59.82      -58.34      -21.24      
458.4625    -3.79       -56.93      -55.43      -21.33      
458.51875   -3.7        -66.6       -63.16      -21.34      
458.575     -3.64       -61.1       -70.13      -21.32      
458.63125   -3.59       -58.69      -65.28      -21.26      
458.6875    -3.59       -61.86      -63.56      -21.3       
458.74375   -3.5        -59.06      -59.82      -21.26      
458.8       -3.51       -60.03      -78.98      -21.24      
458.85625   -3.48       -68.74      -65.04      -21.24      
458.9125    -3.46       -73.43      -59.01      -21.26      
458.96875   -3.43       -61.67      -57.37      -21.26      
459.025     -3.42       -62.7       -75.71      -21.18      
459.08125   -3.39       -64.61      -59.56      -21.29      
459.1375    -3.39       -81.41      -72.55      -21.22      
459.19375   -3.38       -60.14      -69.46      -21.17      
459.25      -3.38       -72.86      -57.14      -21.35      
459.30625   -3.38       -62.03      -70.29      -21.28      
459.3625    -3.38       -61.65      -64.34      -21.2       
459.41875   -3.38       -62.01      -71.92      -21.23      
459.475     -3.41       -59.32      -59.28      -21.26      
459.53125   -3.39       -79.04      -72.48      -21.26      
459.5875    -3.39       -56.78      -61.99      -21.23      
459.64375   -3.43       -69.36      -60.88      -21.15      
459.7       -3.43       -65.21      -62.38      -21.23      
459.75625   -3.47       -70.75      -57.4       -21.3       
459.8125    -3.48       -63.32      -69.88      -21.26      
459.86875   -3.53       -60.11      -67.32      -21.18      
459.925     -3.57       -68.76      -68.84      -21.2       
459.98125   -3.63       -66.15      -61.86      -21.2       
460.0375    -3.7        -58.43      -58.81      -21.23      
460.09375   -3.79       -54.63      -60.79      -21.3       
460.15      -3.92       -70.23      -71.54      -21.27      
460.20625   -4.04       -69.45      -61.5       -21.31      
460.2625    -4.2        -53.31      -64.18      -21.18      
460.31875   -4.37       -64.03      -63.79      -21.23      
460.375     -4.55       -59.04      -65.98      -21.19      
460.43125   -4.74       -69.64      -66.26      -21.3       
460.4875    -5.0        -57.28      -55.71      -21.29      
460.54375   -5.15       -64.04      -54.71      -21.33      
460.6       -5.3        -62.42      -58.05      -21.31      
460.65625   -5.42       -64.34      -58.96      -21.18      
460.7125    -5.42       -69.12      -53.63      -21.27      
460.76875   -5.14       -67.04      -57.4       -21.27      
460.825     -4.72       -66.11      -55.5       -21.27      
460.88125   -4.38       -60.3       -55.56      -21.32      
460.9375    -4.15       -58.74      -53.62      -21.34      
460.99375   -3.96       -60.8       -55.7       -21.39      
461.05      -3.85       -72.96      -55.8       -21.46      
461.10625   -3.77       -64.15      -61.76      -21.34      
461.1625    -3.67       -60.38      -65.24      -21.37      
461.21875   -3.64       -63.5       -60.13      -21.34      
461.275     -3.59       -60.18      -57.41      -21.48      
461.33125   -3.6        -61.36      -67.19      -21.4       
461.3875    -3.57       -64.34      -65.89      -21.44      
461.44375   -3.58       -62.6       -62.08      -21.46      
461.5       -3.57       -70.3       -68.93      -21.35      
461.55625   -3.58       -62.69      -59.12      -21.34      
461.6125    -3.6        -68.86      -64.42      -21.48      
461.66875   -3.61       -67.24      -61.6       -21.36      
461.725     -3.65       -62.12      -62.58      -21.36      
461.78125   -3.69       -59.85      -58.9       -21.44      
461.8375    -3.72       -60.45      -69.74      -21.44      
461.89375   -3.79       -60.8       -60.76      -21.49      
461.95      -3.85       -66.73      -67.98      -21.52      
462.00625   -3.96       -63.14      -54.12      -21.33      
462.0625    -4.11       -61.57      -57.94      -21.35      
462.11875   -4.3        -68.13      -58.94      -21.4       
462.175     -4.52       -64.12      -54.89      -21.46      
462.23125   -4.8        -63.94      -59.4       -21.46      
462.2875    -5.17       -69.78      -51.6       -21.46      
462.34375   -5.66       -62.53      -48.24      -21.3       
462.4       -6.26       -63.93      -51.23      -21.37      
462.45625   -7.08       -59.89      -48.69      -21.45      
462.5125    -8.08       -61.03      -46.14      -21.4       
462.56875   -9.34       -54.84      -46.7       -21.43      
462.625     -10.91      -59.66      -45.05      -21.44      
462.68125   -12.83      -73.03      -44.32      -21.42      
462.7375    -15.0       -64.3       -42.23      -21.43      
462.79375   -17.25      -64.79      -42.67      -21.48      
462.85      -19.09      -60.36      -43.2       -21.44      
462.90625   -19.79      -64.89      -43.06      -21.38      
462.9625    -19.16      -67.29      -42.84      -21.48      
463.01875   -18.14      -69.7       -44.08      -21.33      
463.075     -17.28      -74.31      -43.33      -21.5       
463.13125   -16.45      -73.72      -43.11      -21.55      
463.1875    -15.96      -61.46      -43.65      -21.43      
463.24375   -15.62      -67.84      -44.44      -21.38      
463.3       -15.31      -60.67      -45.67      -21.43      
463.35625   -15.26      -63.4       -44.04      -21.47      
463.4125    -15.33      -74.26      -43.37      -21.52      
463.46875   -15.42      -60.15      -43.82      -21.63      
463.525     -15.66      -67.37      -42.52      -21.58      
463.58125   -15.98      -59.55      -44.29      -21.52      
463.6375    -16.38      -65.6       -42.17      -21.57      
463.69375   -16.97      -66.12      -42.5       -21.51      
463.75      -17.52      -66.09      -41.98      -21.52      
463.80625   -18.13      -58.53      -41.35      -21.6       
463.8625    -18.91      -61.75      -40.86      -21.62      
463.91875   -19.74      -59.04      -40.26      -21.57      
463.975     -20.61      -61.74      -39.73      -21.55      
464.03125   -21.52      -69.39      -40.22      -21.7       
464.0875    -22.54      -61.26      -39.8       -21.61      
464.14375   -23.31      -67.89      -39.22      -21.55      
464.2       -24.35      -68.11      -38.17      -21.61      
464.25625   -24.65      -58.36      -38.1       -21.59      
464.3125    -24.77      -56.42      -38.95      -21.65      
464.36875   -24.34      -64.8       -38.41      -21.5       
464.425     -23.76      -59.13      -37.7       -21.66      
464.48125   -22.92      -60.85      -38.06      -21.51      
464.5375    -22.23      -59.25      -37.91      -21.59      
464.59375   -21.25      -71.94      -38.07      -21.7       
464.65      -20.6       -61.78      -37.7       -21.63      
464.70625   -19.94      -60.74      -37.9       -21.54      
464.7625    -19.35      -59.97      -37.4       -21.69      
464.81875   -18.78      -61.4       -37.58      -21.43      
464.875     -18.24      -59.28      -37.65      -21.52      
464.93125   -17.75      -59.59      -37.81      -21.53      
464.9875    -17.44      -58.28      -38.15      -21.59      
465.04375   -17.0       -62.16      -37.68      -21.47      
465.1       -16.71      -61.5       -37.44      -21.54      
465.15625   -16.34      -63.35      -37.55      -21.45      
465.2125    -16.05      -60.73      -37.59      -21.56      
465.26875   -15.86      -68.23      -38.14      -21.59      
465.325     -15.61      -63.93      -37.8       -21.48      
465.38125   -15.43      -70.17      -38.4       -21.58      
465.4375    -15.27      -67.99      -37.13      -21.59      
465.49375   -15.19      -66.2       -37.7       -21.54      
465.55      -15.01      -60.46      -38.26      -21.56      
465.60625   -14.93      -61.61      -37.75      -21.55      
465.6625    -14.84      -57.9       -38.45      -21.61      
465.71875   -14.68      -66.54      -38.37      -21.5       
465.775     -14.69      -65.96      -37.7       -21.6       
465.83125   -14.67      -67.68      -38.46      -21.63      
465.8875    -14.64      -68.25      -38.72      -21.59      
465.94375   -14.66      -59.87      -38.06      -21.68      
466.0       -14.62      -74.29      -38.37      -21.65      
466.05625   -14.66      -65.61      -40.02      -21.62      
466.1125    -14.66      -62.76      -39.21      -21.56      
466.16875   -14.67      -67.52      -39.35      -21.71      
466.225     -14.76      -61.97      -39.08      -21.66      
466.28125   -14.77      -63.59      -39.83      -21.74      
466.3375    -14.84      -62.15      -39.93      -21.75      
466.39375   -14.86      -62.72      -39.37      -21.64      
466.45      -14.96      -66.61      -38.68      -21.77      
466.50625   -15.01      -60.01      -39.26      -21.66      
466.5625    -15.09      -62.13      -38.76      -21.7       
466.61875   -15.15      -72.32      -38.55      -21.76      
466.675     -15.3       -72.13      -38.44      -21.79      
466.73125   -15.4       -74.13      -39.15      -21.65      
466.7875    -15.44      -63.14      -38.98      -21.66      
466.84375   -15.57      -57.93      -39.33      -21.58      
466.9       -15.71      -67.15      -39.45      -21.7       
466.95625   -15.87      -55.42      -38.48      -21.75      
467.0125    -15.99      -61.35      -39.3       -21.6       
467.06875   -16.07      -61.85      -39.47      -21.78      
467.125     -16.21      -71.86      -38.97      -21.71      
467.18125   -16.24      -56.52      -39.15      -21.67      
467.2375    -16.41      -57.28      -39.62      -21.68      
467.29375   -16.51      -67.24      -38.62      -21.72      
467.35      -16.75      -75.65      -39.44      -21.74      
467.40625   -16.84      -72.64      -38.34      -21.78      
467.4625    -16.93      -64.08      -38.79      -21.86      
467.51875   -17.08      -71.4       -38.38      -21.67      
467.575     -17.19      -67.2       -38.61      -21.82      
467.63125   -17.37      -68.02      -38.57      -21.69      
467.6875    -17.41      -64.97      -38.33      -21.72      
467.74375   -17.57      -69.81      -38.3       -21.67      
467.8       -17.64      -63.83      -39.21      -21.83      
467.85625   -17.77      -63.57      -37.83      -21.82      
467.9125    -17.91      -60.08      -38.91      -21.75      
467.96875   -17.92      -63.05      -38.0       -21.84      
468.025     -18.12      -60.95      -37.22      -21.67      
468.08125   -18.1       -64.82      -38.84      -21.76      
468.1375    -18.23      -79.66      -37.88      -21.82      
468.19375   -18.26      -62.54      -37.66      -21.84      
468.25      -18.41      -61.54      -38.37      -21.67      
468.30625   -18.42      -58.72      -37.74      -21.82      
468.3625    -18.42      -59.22      -37.14      -21.79      
468.41875   -18.44      -73.42      -37.64      -21.74      
468.475     -18.44      -70.12      -37.32      -21.92      
468.53125   -18.38      -58.79      -38.11      -21.78      
468.5875    -18.43      -61.8       -37.55      -21.8       
468.64375   -18.59      -62.55      -37.85      -21.6       
468.7       -18.43      -63.53      -37.97      -21.72      
468.75625   -18.49      -64.75      -37.31      -21.8       
468.8125    -18.44      -68.96      -37.02      -21.69      
468.86875   -18.43      -62.48      -37.42      -21.65      
468.925     -18.43      -74.57      -36.57      -21.72      
468.98125   -18.43      -60.74      -37.65      -21.75      
469.0375    -18.36      -61.73      -37.04      -21.68      
469.09375   -18.3       -61.77      -37.28      -21.78      
469.15      -18.28      -63.85      -37.66      -21.64      
469.20625   -18.23      -59.68      -37.4       -21.79      
469.2625    -18.27      -64.31      -37.0       -21.67      
469.31875   -18.15      -69.61      -37.57      -21.71      
469.375     -18.13      -55.01      -36.67      -21.68      
469.43125   -18.14      -63.9       -36.92      -21.74      
469.4875    -18.09      -65.91      -37.64      -21.86      
469.54375   -18.14      -73.06      -37.19      -21.81      
469.6       -18.07      -66.51      -36.57      -21.85      
469.65625   -18.17      -62.45      -37.33      -21.83      
469.7125    -18.1       -66.25      -37.11      -21.73      
469.76875   -18.2       -78.97      -37.4       -21.86      
469.825     -18.15      -63.65      -37.32      -21.8       
469.88125   -18.24      -61.89      -36.79      -21.89      
469.9375    -18.32      -65.83      -37.13      -21.83      
469.99375   -18.33      -56.62      -36.49      -21.97      
470.05      -18.31      -60.95      -37.22      -21.97      
470.10625   -18.52      -65.65      -36.73      -21.91      
470.1625    -18.49      -68.72      -37.09      -21.91      
470.21875   -18.59      -60.34      -37.25      -22.02      
470.275     -18.53      -68.79      -37.04      -21.93      
470.33125   -18.81      -66.18      -36.77      -21.98      
470.3875    -18.74      -59.46      -37.27      -21.94      
470.44375   -18.92      -55.68      -36.9       -22.02      
470.5       -18.88      -65.37      -37.31      -22.08      
470.55625   -19.02      -62.05      -36.71      -22.13      
470.6125    -19.2       -64.41      -36.82      -21.96      
470.66875   -19.19      -65.69      -37.24      -21.96      
470.725     -19.37      -65.85      -37.69      -21.97      
470.78125   -19.37      -60.19      -36.53      -21.84      
470.8375    -19.45      -63.63      -36.73      -21.95      
470.89375   -19.62      -82.28      -37.13      -21.93      
470.95      -19.69      -59.77      -36.58      -21.96      
471.00625   -19.87      -64.79      -37.21      -21.85      
471.0625    -19.83      -67.27      -36.42      -21.98      
471.11875   -19.84      -59.65      -36.45      -21.89      
471.175     -20.02      -57.15      -36.65      -22.1       
471.23125   -20.11      -69.84      -36.86      -22.05      
471.2875    -20.2       -62.04      -36.47      -22.03      
471.34375   -20.37      -68.68      -35.92      -22.08      
471.4       -20.37      -61.76      -36.28      -22.08      
471.45625   -20.54      -61.53      -36.88      -22.05      
471.5125    -20.59      -66.66      -36.28      -22.04      
471.56875   -20.65      -64.09      -36.58      -21.96      
471.625     -20.78      -72.23      -36.57      -22.13      
471.68125   -20.98      -58.14      -35.87      -21.98      
471.7375    -20.94      -68.63      -36.64      -21.92      
471.79375   -21.1       -55.48      -35.99      -22.06      
471.85      -21.23      -71.07      -35.62      -22.1       
471.90625   -21.17      -71.84      -36.22      -21.91      
471.9625    -21.11      -69.54      -35.2       -22.05      
472.01875   -21.29      -65.98      -35.82      -21.96      
472.075     -21.22      -59.1       -36.17      -22.09      
472.13125   -21.27      -63.27      -35.87      -22.05      
472.1875    -21.36      -62.97      -35.65      -22.08      
472.24375   -21.25      -77.73      -36.03      -22.1       
472.3       -21.19      -81.7       -35.65      -22.06      
472.35625   -21.17      -60.37      -35.52      -22.01      
472.4125    -21.12      -66.5       -35.45      -22.1       
472.46875   -20.99      -60.96      -35.94      -22.14      
472.525     -20.98      -65.69      -35.57      -22.17      
472.58125   -20.79      -67.99      -35.62      -22.18      
472.6375    -20.62      -62.67      -35.41      -22.07      
472.69375   -20.58      -63.48      -35.13      -22.04      
472.75      -20.4       -79.51      -34.68      -22.13      
472.80625   -20.14      -58.13      -35.14      -22.08      
472.8625    -19.92      -62.78      -34.94      -22.13      
472.91875   -19.8       -54.62      -34.68      -22.2       
472.975     -19.61      -58.11      -34.52      -22.11      
473.03125   -19.44      -69.49      -34.76      -22.04      
473.0875    -19.19      -60.2       -34.89      -22.11      
473.14375   -19.06      -58.88      -34.76      -22.11      
473.2       -18.81      -67.7       -34.36      -22.07      
473.25625   -18.7       -69.95      -34.41      -22.16      
473.3125    -18.42      -62.99      -34.38      -22.15      
473.36875   -18.25      -60.8       -34.8       -22.09      
473.425     -18.03      -60.75      -34.34      -22.04      
473.48125   -17.92      -62.53      -34.16      -22.14      
473.5375    -17.76      -68.44      -34.46      -22.04      
473.59375   -17.65      -67.5       -34.07      -22.01      
473.65      -17.45      -68.54      -34.37      -22.09      
473.70625   -17.24      -64.71      -34.43      -22.07      
473.7625    -17.11      -67.6       -34.29      -22.25      
473.81875   -16.85      -61.16      -34.01      -22.15      
473.875     -16.75      -56.76      -34.14      -22.04      
473.93125   -16.53      -59.32      -33.92      -22.2       
473.9875    -16.4       -63.23      -33.94      -22.19      
474.04375   -16.25      -59.21      -33.79      -22.13      
474.1       -16.05      -76.73      -33.79      -22.29      
474.15625   -15.91      -67.95      -33.55      -22.18      
474.2125    -15.75      -75.52      -34.08      -22.29      
474.26875   -15.59      -60.43      -33.71      -22.23      
474.325     -15.4       -60.5       -33.82      -22.3       
474.38125   -15.19      -57.03      -33.61      -22.27      
474.4375    -15.08      -66.63      -33.47      -22.38      
474.49375   -14.83      -70.57      -33.48      -22.42      
474.55      -14.72      -69.88      -33.15      -22.49      
474.60625   -14.53      -73.02      -33.3       -22.39      
474.6625    -14.37      -55.59      -33.28      -22.4       
474.71875   -14.2       -59.74      -33.2       -22.35      
474.775     -14.05      -60.53      -32.98      -22.23      
474.83125   -13.9       -61.15      -33.02      -22.4       
474.8875    -13.76      -60.9       -33.26      -22.37      
474.94375   -13.67      -59.86      -33.26      -22.36      
475.0       -13.51      -60.34      -32.89      -22.34      
475.05625   -13.39      -64.92      -33.28      -22.32      
475.1125    -13.23      -66.25      -32.98      -22.46      
475.16875   -13.1       -60.36      -33.01      -22.29      
475.225     -13.07      -66.78      -33.27      -22.38      
475.28125   -12.89      -61.4       -32.84      -22.35      
475.3375    -12.91      -59.89      -33.16      -22.37      
475.39375   -12.72      -69.27      -32.79      -22.24      
475.45      -12.67      -68.55      -33.08      -22.27      
475.50625   -12.56      -63.48      -33.1       -22.37      
475.5625    -12.55      -60.36      -32.96      -22.37      
475.61875   -12.44      -61.23      -33.05      -22.33      
475.675     -12.34      -58.21      -33.17      -22.32      
475.73125   -12.3       -60.04      -32.9       -22.39      
475.7875    -12.23      -62.23      -32.82      -22.33      
475.84375   -12.14      -66.33      -32.8       -22.37      
475.9       -12.11      -60.6       -33.4       -22.31      
475.95625   -12.0       -59.48      -33.3       -22.29      
476.0125    -11.93      -59.49      -32.95      -22.29      
476.06875   -11.87      -60.26      -33.04      -22.28      
476.125     -11.77      -64.76      -33.06      -22.38      
476.18125   -11.73      -62.41      -32.79      -22.26      
476.2375    -11.62      -72.59      -33.03      -22.33      
476.29375   -11.58      -56.61      -32.98      -22.43      
476.35      -11.52      -71.52      -33.12      -22.43      
476.40625   -11.44      -66.4       -33.29      -22.51      
476.4625    -11.38      -62.9       -33.13      -22.52      
476.51875   -11.36      -67.93      -33.27      -22.57      
476.575     -11.26      -72.58      -33.34      -22.43      
476.63125   -11.24      -62.34      -33.63      -22.54      
476.6875    -11.21      -65.41      -32.8       -22.39      
476.74375   -11.16      -64.83      -33.1       -22.43      
476.8       -11.14      -60.87      -32.99      -22.47      
476.85625   -11.15      -70.24      -33.47      -22.42      
476.9125    -11.11      -60.16      -33.03      -22.53      
476.96875   -11.06      -55.92      -33.22      -22.53      
477.025     -11.09      -60.97      -33.14      -22.63      
477.08125   -11.01      -68.73      -33.58      -22.54      
477.1375    -11.01      -67.39      -33.27      -22.59      
477.19375   -11.0       -64.29      -33.37      -22.65      
477.25      -11.0       -60.81      -33.48      -22.69      
477.30625   -11.01      -61.21      -33.56      -22.56      
477.3625    -10.97      -62.0       -33.43      -22.48      
477.41875   -10.97      -67.69      -33.69      -22.51      
477.475     -10.96      -78.35      -33.72      -22.53      
477.53125   -10.97      -62.23      -33.72      -22.5       
477.5875    -10.98      -65.33      -33.55      -22.53      
477.64375   -10.96      -60.92      -33.63      -22.46      
477.7       -10.98      -64.84      -33.53      -22.54      
477.75625   -10.98      -59.79      -33.44      -22.52      
477.8125    -10.93      -56.43      -33.8       -22.57      
477.86875   -11.0       -63.15      -33.22      -22.58      
477.925     -11.0       -74.17      -33.64      -22.6       
477.98125   -10.98      -62.54      -34.21      -22.74      
478.0375    -10.99      -59.39      -34.08      -22.49      
478.09375   -10.99      -63.06      -33.46      -22.55      
478.15      -11.03      -60.34      -33.65      -22.56      
478.20625   -11.02      -68.75      -33.93      -22.56      
478.2625    -11.08      -62.69      -34.33      -22.62      
478.31875   -11.14      -61.04      -33.73      -22.39      
478.375     -11.17      -65.55      -33.95      -22.6       
478.43125   -11.2       -55.37      -34.08      -22.55      
478.4875    -11.27      -61.76      -34.15      -22.36      
478.54375   -11.29      -63.79      -34.25      -22.47      
478.6       -11.35      -66.1       -34.76      -22.51      
478.65625   -11.4       -63.29      -34.43      -22.42      
478.7125    -11.44      -58.84      -34.22      -22.47      
478.76875   -11.47      -62.23      -34.23      -22.46      
478.825     -11.52      -66.38      -34.01      -22.55      
478.88125   -11.5       -69.68      -34.38      -22.63      
478.9375    -11.57      -64.69      -34.04      -22.51      
478.99375   -11.62      -58.66      -34.48      -22.59      
479.05      -11.68      -60.73      -34.12      -22.61      
479.10625   -11.68      -64.76      -34.95      -22.56      
479.1625    -11.77      -63.42      -34.95      -22.66      
479.21875   -11.8       -58.93      -34.8       -22.75      
479.275     -11.82      -56.38      -34.19      -22.64      
479.33125   -11.87      -65.43      -34.58      -22.78      
479.3875    -11.97      -58.56      -35.0       -22.7       
479.44375   -12.05      -68.4       -35.29      -22.69      
479.5       -12.09      -69.53      -34.29      -22.67      
479.55625   -12.24      -59.52      -35.44      -22.72      
479.6125    -12.28      -65.71      -34.94      -22.57      
479.66875   -12.43      -66.47      -35.23      -22.66      
479.725     -12.52      -56.56      -35.27      -22.76      
479.78125   -12.6       -60.87      -35.12      -22.58      
479.8375    -12.7       -69.94      -35.29      -22.71      
479.89375   -12.81      -65.4       -35.82      -22.73      
479.95      -12.95      -76.97      -35.41      -22.76      
480.00625   -13.11      -65.0       -35.78      -22.61      
480.0625    -13.2       -66.11      -35.92      -22.61      
480.11875   -13.36      -60.88      -35.31      -22.64      
480.175     -13.42      -55.84      -35.72      -22.64      
480.23125   -13.59      -54.15      -35.47      -22.67      
480.2875    -13.73      -73.12      -35.72      -22.78      
480.34375   -13.84      -72.51      -35.39      -22.66      
480.4       -13.92      -64.85      -36.11      -22.55      
480.45625   -14.11      -59.54      -36.0       -22.7       
480.5125    -14.22      -57.41      -36.36      -22.61      
480.56875   -14.3       -61.71      -35.87      -22.7       
480.625     -14.47      -62.76      -36.27      -22.75      
480.68125   -14.64      -62.18      -35.68      -22.83      
480.7375    -14.7       -63.35      -35.83      -22.75      
480.79375   -14.92      -61.28      -36.01      -22.69      
480.85      -15.0       -79.14      -35.94      -22.84      
480.90625   -15.18      -62.31      -35.48      -22.93      
480.9625    -15.38      -72.26      -35.59      -22.79      
481.01875   -15.41      -62.0       -36.38      -22.76      
481.075     -15.65      -68.45      -35.65      -22.82      
481.13125   -15.79      -67.58      -37.02      -22.9       
481.1875    -16.01      -61.2       -36.11      -22.76      
481.24375   -16.19      -63.61      -36.36      -22.83      
481.3       -16.45      -67.12      -36.35      -22.79      
481.35625   -16.62      -73.38      -36.02      -22.82      
481.4125    -16.76      -63.85      -35.99      -22.88      
481.46875   -16.97      -75.3       -35.77      -22.8       
481.525     -17.13      -66.52      -36.11      -22.63      
481.58125   -17.27      -69.15      -36.52      -22.69      
481.6375    -17.32      -63.15      -35.33      -22.72      
481.69375   -17.46      -74.55      -35.89      -22.58      
481.75      -17.48      -61.93      -36.61      -22.73      
481.80625   -17.7       -57.46      -36.12      -22.61      
481.8625    -17.77      -66.49      -35.93      -22.7       
481.91875   -17.9       -63.4       -35.97      -22.77      
481.975     -18.07      -60.86      -36.04      -22.79      
482.03125   -18.09      -62.44      -35.58      -22.68      
482.0875    -18.29      -67.92      -35.79      -22.8       
482.14375   -18.36      -58.57      -35.95      -22.85      
482.2       -18.34      -76.53      -36.07      -22.98      
482.25625   -18.41      -58.28      -35.49      -22.88      
482.3125    -18.42      -66.57      -35.75      -22.93      
482.36875   -18.44      -61.11      -35.65      -22.88      
482.425     -18.55      -68.77      -35.51      -22.85      
482.48125   -18.6       -61.56      -35.16      -22.88      
482.5375    -18.57      -63.78      -35.57      -22.84      
482.59375   -18.65      -67.26      -35.84      -22.87      
482.65      -18.58      -67.53      -35.82      -22.91      
482.70625   -18.58      -68.76      -35.76      -22.9       
482.7625    -18.41      -65.42      -34.9       -22.91      
482.81875   -18.46      -65.05      -34.98      -22.89      
482.875     -18.39      -66.22      -34.93      -22.93      
482.93125   -18.33      -65.4       -35.0       -23.06      
482.9875    -18.09      -59.73      -34.84      -22.96      
483.04375   -17.95      -61.92      -35.17      -23.21      
483.1       -17.92      -61.82      -35.24      -23.2       
483.15625   -17.69      -59.95      -34.37      -23.06      
483.2125    -17.55      -65.23      -35.01      -22.94      
483.26875   -17.51      -58.99      -34.73      -23.09      
483.325     -17.32      -56.33      -34.79      -22.97      
483.38125   -17.2       -80.1       -34.52      -22.99      
483.4375    -17.01      -59.45      -34.86      -22.87      
483.49375   -16.96      -60.27      -34.74      -22.91      
483.55      -16.88      -66.16      -34.51      -22.88      
483.60625   -16.75      -61.7       -34.64      -23.02      
483.6625    -16.7       -61.88      -34.78      -22.89      
483.71875   -16.71      -65.35      -34.64      -22.86      
483.775     -16.63      -63.44      -34.99      -22.98      
483.83125   -16.62      -58.79      -34.38      -22.88      
483.8875    -16.52      -60.55      -34.99      -22.98      
483.94375   -16.59      -57.84      -34.6       -22.97      
484.0       -16.51      -66.69      -34.45      -23.17      
484.05625   -16.44      -56.57      -34.67      -23.06      
484.1125    -16.41      -71.64      -35.13      -22.96      
484.16875   -16.39      -67.25      -34.82      -22.96      
484.225     -16.32      -58.46      -34.61      -22.88      
484.28125   -16.25      -70.52      -35.12      -23.03      
484.3375    -16.28      -65.33      -34.89      -23.04      
484.39375   -16.27      -74.89      -35.05      -22.99      
484.45      -16.3       -71.95      -35.4       -23.03      
484.50625   -16.31      -58.76      -34.69      -23.0       
484.5625    -16.33      -70.34      -35.19      -23.19      
484.61875   -16.36      -66.07      -34.73      -22.96      
484.675     -16.37      -68.49      -35.24      -23.08      
484.73125   -16.44      -58.29      -34.92      -23.14      
484.7875    -16.52      -65.56      -35.89      -23.02      
484.84375   -16.62      -72.75      -35.36      -23.01      
484.9       -16.61      -65.64      -34.99      -23.11      
484.95625   -16.71      -63.76      -35.31      -22.97      
485.0125    -16.92      -65.96      -35.21      -23.03      
485.06875   -17.0       -64.42      -35.84      -23.06      
485.125     -17.16      -55.36      -36.07      -23.14      
485.18125   -17.31      -76.16      -35.85      -23.18      
485.2375    -17.45      -66.8       -35.47      -23.01      
485.29375   -17.66      -58.84      -35.26      -23.11      
485.35      -17.97      -69.4       -35.67      -23.1       
485.40625   -18.26      -60.84      -36.07      -23.03      
485.4625    -18.49      -65.91      -36.18      -23.09      
485.51875   -18.78      -67.53      -35.62      -23.11      
485.575     -19.14      -65.21      -36.5       -23.03      
485.63125   -19.44      -66.88      -36.37      -23.01      
485.6875    -19.84      -67.51      -35.98      -23.08      
485.74375   -20.14      -66.38      -35.97      -23.1       
485.8       -20.46      -57.79      -36.09      -23.04      
485.85625   -20.9       -57.91      -36.54      -23.03      
485.9125    -21.31      -71.92      -36.6       -23.01      
485.96875   -21.86      -78.06      -36.13      -23.05      
486.025     -22.42      -60.88      -36.79      -23.02      
486.08125   -22.82      -61.33      -36.74      -23.23      
486.1375    -23.71      -59.51      -36.92      -23.03      
486.19375   -24.53      -66.21      -36.7       -22.96      
486.25      -25.45      -65.36      -37.8       -22.99      
486.30625   -27.07      -62.31      -36.98      -23.06      
486.3625    -28.92      -58.42      -37.14      -23.01      
486.41875   -31.59      -63.01      -37.71      -23.08      
486.475     -35.14      -59.3       -37.8       -22.98      
486.53125   -42.05      -65.94      -37.75      -22.96      
486.5875    -42.96      -62.72      -38.6       -23.15      
486.64375   -36.04      -69.92      -37.35      -23.1       
486.7       -31.2       -62.14      -37.9       -23.05      
486.75625   -28.73      -63.54      -38.22      -23.11      
486.8125    -26.51      -69.9       -38.58      -23.02      
486.86875   -24.8       -59.59      -37.55      -22.95      
486.925     -23.18      -70.24      -37.33      -23.16      
486.98125   -22.07      -65.82      -37.54      -22.97      
487.0375    -20.95      -66.1       -37.88      -22.99      
487.09375   -20.0       -68.75      -37.65      -23.11      
487.15      -19.17      -62.94      -36.8       -23.1       
487.20625   -18.33      -61.9       -37.22      -23.01      
487.2625    -17.6       -58.61      -37.63      -22.91      
487.31875   -16.83      -68.24      -36.3       -22.97      
487.375     -16.12      -59.36      -36.62      -22.96      
487.43125   -15.41      -66.19      -36.26      -23.14      
487.4875    -14.82      -64.26      -36.51      -23.13      
487.54375   -14.32      -66.78      -36.03      -23.19      
487.6       -13.76      -66.44      -35.63      -23.19      
487.65625   -13.29      -67.75      -35.81      -23.32      
487.7125    -12.76      -62.43      -35.47      -23.15      
487.76875   -12.3       -71.87      -35.41      -23.17      
487.825     -11.87      -58.37      -34.5       -23.15      
487.88125   -11.42      -60.93      -34.96      -22.92      
487.9375    -11.05      -61.64      -34.76      -23.01      
487.99375   -10.66      -71.48      -34.95      -22.99      
488.05      -10.25      -62.8       -34.41      -22.93      
488.10625   -9.96       -71.01      -34.69      -23.12      
488.1625    -9.62       -60.51      -34.3       -23.03      
488.21875   -9.29       -64.31      -33.74      -23.01      
488.275     -8.98       -58.14      -34.08      -23.17      
488.33125   -8.7        -56.62      -33.87      -23.19      
488.3875    -8.43       -60.87      -33.73      -23.15      
488.44375   -8.2        -65.62      -34.37      -23.18      
488.5       -7.94       -62.88      -33.48      -23.26      
488.55625   -7.69       -69.74      -33.85      -23.41      
488.6125    -7.49       -61.24      -33.52      -23.21      
488.66875   -7.3        -59.37      -34.44      -23.06      
488.725     -7.11       -59.55      -33.71      -23.14      
488.78125   -6.9        -66.15      -33.87      -23.19      
488.8375    -6.68       -62.1       -33.8       -23.21      
488.89375   -6.49       -66.28      -34.11      -23.01      
488.95      -6.34       -61.96      -33.73      -23.16      
489.00625   -6.18       -56.75      -34.65      -23.02      
489.0625    -6.04       -67.1       -34.15      -23.02      
489.11875   -5.88       -57.14      -34.38      -23.14      
489.175     -5.75       -66.08      -34.16      -23.22      
489.23125   -5.61       -72.09      -34.05      -23.11      
489.2875    -5.47       -63.26      -34.36      -23.11      
489.34375   -5.33       -57.58      -34.67      -23.12      
489.4       -5.21       -68.69      -34.6       -23.16      
489.45625   -5.11       -74.93      -34.25      -23.28      
489.5125    -4.98       -55.1       -34.5       -23.11      
489.56875   -4.89       -68.01      -35.1       -23.21      
489.625     -4.82       -62.23      -35.19      -23.02      
489.68125   -4.72       -66.89      -35.01      -23.19      
489.7375    -4.64       -70.41      -34.87      -23.23      
489.79375   -4.58       -73.53      -35.16      -23.12      
489.85      -4.5        -68.92      -35.58      -23.12      
489.90625   -4.44       -57.94      -35.6       -23.1       
489.9625    -4.37       -71.62      -36.22      -23.24      
490.01875   -4.3        -57.77      -35.75      -23.16      
490.075     -4.25       -76.07      -36.35      -23.2       
490.13125   -4.17       -64.12      -36.6       -23.15      
490.1875    -4.13       -58.23      -36.22      -23.07      
490.24375   -4.06       -65.77      -37.07      -23.16      
490.3       -4.01       -64.69      -36.48      -23.17      
490.35625   -3.94       -58.07      -37.06      -23.21      
490.4125    -3.93       -70.0       -37.18      -23.13      
490.46875   -3.87       -71.01      -37.2       -23.24      
490.525     -3.83       -60.58      -38.06      -23.17      
490.58125   -3.83       -60.56      -37.2       -23.16      
490.6375    -3.75       -56.23      -37.9       -23.24      
490.69375   -3.75       -57.45      -37.29      -23.25      
490.75      -3.71       -68.74      -38.88      -23.33      
490.80625   -3.68       -58.69      -38.26      -23.27      
490.8625    -3.64       -63.88      -38.48      -23.29      
490.91875   -3.61       -61.77      -38.78      -23.26      
490.975     -3.6        -57.87      -39.98      -23.27      
491.03125   -3.57       -62.0       -39.45      -23.18      
491.0875    -3.53       -61.99      -39.01      -22.98      
491.14375   -3.48       -56.66      -39.45      -23.2       
491.2       -3.48       -67.52      -39.74      -23.15      
491.25625   -3.44       -59.84      -40.22      -23.21      
491.3125    -3.4        -73.97      -39.62      -22.99      
491.36875   -3.39       -64.37      -40.35      -23.18      
491.425     -3.38       -58.03      -41.13      -23.21      
491.48125   -3.33       -65.84      -40.83      -23.08      
491.5375    -3.34       -68.95      -41.62      -23.08      
491.59375   -3.3        -62.85      -40.6       -23.2       
491.65      -3.27       -58.97      -40.58      -23.07      
491.70625   -3.24       -67.78      -41.67      -23.05      
491.7625    -3.23       -74.39      -41.63      -23.3       
491.81875   -3.22       -62.37      -41.32      -23.09      
491.875     -3.24       -57.68      -43.51      -23.23      
491.93125   -3.21       -66.35      -43.76      -23.23      
491.9875    -3.21       -66.93      -41.91      -23.31      
492.04375   -3.19       -60.36      -42.02      -23.21      
492.1       -3.18       -65.33      -43.08      -23.36      
492.15625   -3.17       -62.54      -42.64      -23.21      
492.2125    -3.16       -69.73      -42.28      -23.15      
492.26875   -3.13       -76.72      -43.05      -23.21      
492.325     -3.11       -70.75      -43.95      -23.14      
492.38125   -3.07       -64.95      -42.61      -23.13      
492.4375    -3.09       -67.36      -43.49      -23.14      
492.49375   -3.08       -62.29      -43.01      -23.1       
492.55      -3.07       -61.57      -43.72      -23.12      
492.60625   -3.07       -60.49      -43.83      -23.09      
492.6625    -3.04       -58.54      -44.65      -23.13      
492.71875   -3.08       -70.73      -44.91      -23.19      
492.775     -3.05       -65.31      -44.25      -23.07      
492.83125   -3.05       -67.68      -46.14      -23.18      
492.8875    -3.06       -62.08      -44.29      -23.33      
492.94375   -3.06       -66.87      -45.03      -23.33      
493.0       -3.04       -65.78      -47.19      -23.27      
493.05625   -3.05       -57.16      -45.36      -23.23      
493.1125    -3.04       -71.53      -46.18      -23.17      
493.16875   -3.0        -57.23      -46.44      -23.3       
493.225     -3.02       -60.18      -47.79      -23.25      
493.28125   -2.99       -60.51      -48.53      -23.22      
493.3375    -3.02       -59.41      -47.22      -23.26      
493.39375   -3.0        -67.45      -45.62      -23.02      
493.45      -3.02       -65.67      -46.45      -23.08      
493.50625   -2.99       -63.05      -47.37      -23.02      
493.5625    -2.99       -60.42      -46.1       -23.14      
493.61875   -2.97       -63.79      -46.31      -23.17      
493.675     -2.96       -64.66      -46.58      -23.24      
493.73125   -2.97       -63.99      -48.02      -23.25      
493.7875    -2.97       -61.05      -47.54      -23.15      
493.84375   -2.97       -57.61      -50.74      -23.2       
493.9       -2.94       -68.95      -47.75      -23.3       
493.95625   -2.96       -83.33      -49.39      -23.19      
494.0125    -2.94       -62.23      -45.72      -23.22      
494.06875   -2.96       -59.01      -49.45      -23.15      
494.125     -2.92       -69.98      -50.39      -23.25      
494.18125   -2.94       -74.24      -46.9       -23.23      
494.2375    -2.92       -70.19      -48.31      -23.26      
494.29375   -2.91       -61.32      -48.1       -23.3       
494.35      -2.91       -64.41      -49.28      -23.21      
494.40625   -2.93       -62.9       -50.84      -23.09      
494.4625    -2.93       -74.71      -52.36      -23.32      
494.51875   -2.9        -62.39      -50.61      -23.25      
494.575     -2.9        -58.06      -50.18      -23.17      
494.63125   -2.89       -57.43      -50.43      -23.19      
494.6875    -2.88       -59.18      -51.35      -23.33      
494.74375   -2.88       -61.9       -49.36      -23.03      
494.8       -2.89       -59.59      -52.23      -23.02      
494.85625   -2.87       -81.55      -53.7       -23.09      
494.9125    -2.86       -61.55      -52.93      -23.28      
494.96875   -2.85       -63.04      -51.31      -23.22      
495.025     -2.88       -61.28      -49.89      -23.22      
495.08125   -2.86       -64.58      -53.22      -23.2       
495.1375    -2.86       -63.49      -55.63      -23.24      
495.19375   -2.84       -77.45      -50.67      -23.4       
495.25      -2.87       -82.84      -51.02      -23.32      
495.30625   -2.87       -56.18      -52.53      -23.23      
495.3625    -2.86       -75.62      -53.61      -23.19      
495.41875   -2.86       -65.76      -51.91      -23.17      
495.475     -2.85       -67.89      -52.13      -23.13      
495.53125   -2.83       -61.98      -58.69      -23.4       
495.5875    -2.86       -69.07      -52.66      -23.29      
495.64375   -2.84       -66.73      -54.25      -23.34      
495.7       -2.84       -59.29      -53.84      -23.31      
495.75625   -2.86       -58.54      -52.7       -23.43      
495.8125    -2.86       -64.2       -58.31      -23.29      
495.86875   -2.85       -63.04      -56.32      -23.26      
495.925     -2.84       -55.55      -53.37      -23.32      
495.98125   -2.84       -61.2       -52.72      -23.33      
496.0375    -2.84       -63.38      -56.31      -23.42      
496.09375   -2.85       -73.37      -56.9       -23.34      
496.15      -2.85       -73.65      -55.83      -23.37      
496.20625   -2.84       -62.35      -57.3       -23.39      
496.2625    -2.84       -64.86      -58.86      -23.44      
496.31875   -2.84       -59.23      -67.85      -23.24      
496.375     -2.84       -60.46      -55.96      -23.18      
496.43125   -2.82       -70.96      -54.28      -23.28      
496.4875    -2.84       -60.03      -57.49      -23.42      
496.54375   -2.83       -53.34      -53.05      -23.33      
496.6       -2.83       -68.16      -52.42      -23.4       
496.65625   -2.81       -58.86      -57.45      -23.44      
496.7125    -2.83       -64.45      -54.17      -23.39      
496.76875   -2.82       -58.05      -55.0       -23.31      
496.825     -2.85       -60.05      -57.61      -23.35      
496.88125   -2.84       -66.45      -55.29      -23.17      
496.9375    -2.84       -64.47      -61.27      -23.33      
496.99375   -2.86       -60.52      -55.89      -23.27      
497.05      -2.84       -78.81      -59.84      -23.25      
497.10625   -2.85       -66.09      -57.93      -23.24      
497.1625    -2.85       -65.04      -59.42      -23.35      
497.21875   -2.84       -66.47      -58.17      -23.29      
497.275     -2.88       -71.36      -58.93      -23.21      
497.33125   -2.86       -64.43      -62.51      -23.4       
497.3875    -2.87       -71.94      -60.17      -23.5       
497.44375   -2.87       -58.85      -57.97      -23.19      
497.5       -2.86       -67.44      -60.84      -23.26      
497.55625   -2.86       -65.1       -56.1       -23.4       
497.6125    -2.88       -59.18      -60.69      -23.47      
497.66875   -2.89       -68.04      -54.1       -23.44      
497.725     -2.86       -65.02      -59.19      -23.31      
497.78125   -2.89       -60.49      -58.65      -23.31      
497.8375    -2.88       -66.7       -61.09      -23.55      
497.89375   -2.88       -58.01      -55.71      -23.46      
497.95      -2.88       -62.61      -54.98      -23.49      
498.00625   -2.89       -57.31      -60.61      -23.59      
498.0625    -2.88       -67.93      -61.99      -23.42      
498.11875   -2.88       -58.96      -56.47      -23.58      
498.175     -2.86       -58.06      -57.65      -23.38      
498.23125   -2.87       -59.28      -53.94      -23.49      
498.2875    -2.86       -71.87      -76.65      -23.65      
498.34375   -2.87       -69.44      -59.11      -23.5       
498.4       -2.86       -76.66      -56.05      -23.55      
498.45625   -2.87       -64.61      -65.25      -23.5       
498.5125    -2.87       -61.51      -61.01      -23.55      
498.56875   -2.87       -62.17      -58.96      -23.29      
498.625     -2.86       -57.54      -61.72      -23.38      
498.68125   -2.88       -60.92      -61.62      -23.47      
498.7375    -2.86       -65.51      -57.28      -23.43      
498.79375   -2.87       -59.85      -63.5       -23.38      
498.85      -2.85       -60.5       -55.75      -23.37      
498.90625   -2.87       -67.0       -60.64      -23.57      
498.9625    -2.86       -60.63      -57.9       -23.39      
499.01875   -2.86       -58.84      -55.75      -23.44      
499.075     -2.87       -59.75      -60.32      -23.52      
499.13125   -2.85       -63.04      -62.35      -23.38      
499.1875    -2.86       -58.51      -58.47      -23.41      
499.24375   -2.88       -61.17      -58.59      -23.61      
499.3       -2.87       -64.55      -67.18      -23.42      
499.35625   -2.88       -63.13      -63.4       -23.47      
499.4125    -2.89       -70.78      -67.39      -23.48      
499.46875   -2.88       -59.42      -58.56      -23.41      
499.525     -2.88       -63.82      -50.92      -23.41      
499.58125   -2.88       -60.01      -60.63      -23.44      
499.6375    -2.9        -63.28      -56.12      -23.5       
499.69375   -2.88       -60.26      -59.64      -23.46      
499.75      -2.88       -64.77      -57.77      -23.32      
499.80625   -2.88       -71.63      -60.5       -23.67      
499.8625    -2.86       -61.58      -65.38      -23.47      
499.91875   -2.88       -62.91      -64.19      -23.49      
499.975     -2.87       -61.86      -60.1       -23.42      
500.03125   -2.88       -58.06      -54.32      -23.43      
500.0875    -2.85       -66.63      -61.69      -23.59      
500.14375   -2.87       -62.64      -70.33      -23.6       
500.2       -2.86       -64.28      -60.18      -23.69      
500.25625   -2.85       -64.46      -57.7       -23.66      
500.3125    -2.85       -57.92      -61.39      -23.58      
500.36875   -2.85       -59.72      -57.15      -23.44      
500.425     -2.86       -55.99      -75.19      -23.7       
500.48125   -2.86       -65.35      -59.31      -23.6       
500.5375    -2.87       -60.57      -58.34      -23.6       
500.59375   -2.87       -69.62      -66.1       -23.65      
500.65      -2.87       -61.41      -57.25      -23.58      
500.70625   -2.88       -54.22      -67.08      -23.56      
500.7625    -2.89       -65.2       -65.67      -23.66      
500.81875   -2.87       -78.59      -68.25      -23.7       
500.875     -2.89       -59.28      -63.41      -23.61      
500.93125   -2.88       -68.34      -59.69      -23.61      
500.9875    -2.88       -68.16      -60.2       -23.62      
501.04375   -2.89       -74.45      -62.62      -23.63      
501.1       -2.88       -61.02      -56.94      -23.65      
501.15625   -2.88       -71.99      -64.47      -23.66      
501.2125    -2.87       -60.7       -59.24      -23.54      
501.26875   -2.87       -60.31      -58.58      -23.6       
501.325     -2.85       -67.88      -59.54      -23.64      
501.38125   -2.87       -70.66      -62.84      -23.65      
501.4375    -2.86       -65.12      -61.68      -23.66      
501.49375   -2.87       -63.57      -54.92      -23.67      
501.55      -2.84       -66.84      -57.49      -23.66      
501.60625   -2.85       -65.54      -57.69      -23.67      
501.6625    -2.87       -72.66      -65.1       -23.73      
501.71875   -2.86       -63.57      -67.74      -23.71      
501.775     -2.86       -64.16      -64.52      -23.67      
501.83125   -2.87       -66.84      -57.39      -23.74      
501.8875    -2.87       -72.06      -61.25      -23.59      
501.94375   -2.86       -70.03      -68.29      -23.62      
502.0       -2.9        -64.18      -63.53      -23.67      
502.05625   -2.88       -62.2       -57.75      -23.67      
502.1125    -2.9        -70.23      -52.53      -23.62      
502.16875   -2.88       -62.98      -61.11      -23.59      
502.225     -2.91       -59.5       -65.32      -23.73      
502.28125   -2.9        -57.92      -64.28      -23.56      
502.3375    -2.92       -62.16      -66.44      -23.67      
502.39375   -2.92       -54.24      -61.53      -23.8       
502.45      -2.93       -61.08      -55.93      -23.55      
502.50625   -2.93       -66.97      -55.98      -23.81      
502.5625    -2.94       -68.5       -62.61      -23.77      
502.61875   -2.9        -63.37      -62.84      -23.69      
502.675     -2.9        -63.24      -58.17      -23.75      
502.73125   -2.94       -68.39      -67.03      -23.68      
502.7875    -2.92       -65.7       -59.7       -23.86      
502.84375   -2.91       -66.98      -59.83      -23.97      
502.9       -2.9        -59.44      -57.08      -23.98      
502.95625   -2.92       -67.2       -64.84      -23.92      
503.0125    -2.94       -62.1       -64.35      -23.8       
503.06875   -2.92       -79.83      -63.11      -23.75      
503.125     -2.92       -57.35      -57.61      -23.86      
503.18125   -2.9        -60.5       -65.3       -23.86      
503.2375    -2.9        -59.18      -69.16      -23.73      
503.29375   -2.91       -61.09      -65.79      -23.72      
503.35      -2.9        -62.35      -59.63      -23.7       
503.40625   -2.92       -64.09      -56.08      -23.78      
503.4625    -2.91       -63.03      -67.92      -23.69      
503.51875   -2.91       -62.0       -55.85      -23.78      
503.575     -2.94       -60.44      -57.91      -23.75      
503.63125   -2.94       -60.89      -62.05      -23.75      
503.6875    -2.94       -58.63      -77.11      -23.71      
503.74375   -2.93       -68.29      -61.75      -23.62      
503.8       -2.95       -65.98      -68.5       -23.68      
503.85625   -2.96       -61.66      -70.03      -23.54      
503.9125    -2.94       -72.26      -57.18      -23.79      
503.96875   -2.98       -65.67      -59.09      -23.86      
504.025     -2.97       -63.92      -63.46      -23.76      
504.08125   -2.98       -68.85      -62.78      -24.03      
504.1375    -2.98       -70.92      -58.56      -23.94      
504.19375   -3.0        -62.24      -59.18      -24.07      
504.25      -2.99       -60.95      -66.38      -23.75      
504.30625   -3.0        -60.34      -63.74      -23.81      
504.3625    -2.99       -64.93      -56.39      -23.95      
504.41875   -2.99       -65.25      -73.22      -23.85      
504.475     -2.96       -62.91      -59.03      -23.85      
504.53125   -3.01       -74.4       -72.79      -23.79      
504.5875    -2.98       -71.79      -62.02      -23.91      
504.64375   -3.02       -64.5       -65.34      -23.9       
504.7       -3.0        -57.87      -76.61      -23.91      
504.75625   -3.01       -60.07      -62.91      -23.93      
504.8125    -3.02       -58.7       -57.33      -23.96      
504.86875   -3.02       -64.65      -58.99      -24.01      
504.925     -3.03       -62.79      -59.58      -23.93      
504.98125   -3.01       -56.95      -63.1       -24.0       
505.0375    -3.04       -60.26      -64.6       -24.03      
505.09375   -3.04       -64.6       -58.27      -24.0       
505.15      -3.02       -56.67      -83.09      -23.91      
505.20625   -3.0        -66.63      -56.72      -23.97      
505.2625    -3.03       -66.36      -65.61      -23.95      
505.31875   -3.0        -65.88      -56.27      -23.98      
505.375     -3.02       -59.66      -66.79      -23.88      
505.43125   -3.02       -61.11      -62.54      -23.82      
505.4875    -3.03       -60.84      -66.45      -23.91      
505.54375   -3.04       -68.4       -67.03      -23.88      
505.6       -3.04       -56.79      -72.5       -23.95      
505.65625   -3.04       -67.27      -63.89      -23.97      
505.7125    -3.06       -64.38      -58.83      -23.93      
505.76875   -3.06       -66.77      -63.46      -23.92      
505.825     -3.1        -73.02      -58.45      -23.81      
505.88125   -3.1        -66.37      -61.7       -23.95      
505.9375    -3.09       -60.39      -58.42      -23.83      
505.99375   -3.11       -72.71      -57.32      -23.87      
506.05      -3.13       -66.76      -55.03      -23.83      
506.10625   -3.11       -74.15      -56.07      -23.8       
506.1625    -3.12       -75.16      -56.78      -23.88      
506.21875   -3.11       -59.74      -64.17      -24.04      
506.275     -3.12       -60.61      -61.76      -23.98      
506.33125   -3.11       -67.15      -62.25      -23.9       
506.3875    -3.11       -70.06      -62.19      -23.91      
506.44375   -3.13       -64.81      -63.34      -23.99      
506.5       -3.11       -61.67      -65.1       -24.05      
506.55625   -3.12       -76.66      -56.8       -23.98      
506.6125    -3.12       -55.94      -68.74      -24.25      
506.66875   -3.12       -62.26      -60.09      -23.96      
506.725     -3.12       -59.02      -56.29      -23.87      
506.78125   -3.12       -60.48      -61.63      -23.91      
506.8375    -3.12       -74.37      -64.82      -23.97      
506.89375   -3.15       -58.82      -60.66      -24.07      
506.95      -3.13       -65.31      -58.16      -24.02      
507.00625   -3.13       -60.6       -58.23      -24.08      
507.0625    -3.15       -68.67      -57.16      -24.02      
507.11875   -3.15       -62.0       -62.81      -23.92      
507.175     -3.15       -63.81      -70.51      -24.02      
507.23125   -3.17       -63.02      -75.13      -24.0       
507.2875    -3.17       -66.09      -82.39      -24.08      
507.34375   -3.2        -72.87      -63.03      -24.08      
507.4       -3.2        -64.86      -62.36      -23.87      
507.45625   -3.24       -58.75      -67.68      -23.98      
507.5125    -3.24       -62.19      -69.87      -23.9       
507.56875   -3.24       -66.09      -55.96      -23.88      
507.625     -3.24       -59.91      -57.3       -23.95      
507.68125   -3.24       -63.74      -65.44      -23.92      
507.7375    -3.24       -65.92      -57.48      -24.0       
507.79375   -3.22       -67.42      -62.23      -24.0       
507.85      -3.21       -65.11      -61.78      -24.14      
507.90625   -3.2        -72.99      -64.07      -24.12      
507.9625    -3.2        -62.22      -64.87      -24.08      
508.01875   -3.22       -67.8       -59.22      -24.01      
508.075     -3.24       -61.65      -66.28      -24.07      
508.13125   -3.24       -64.55      -67.2       -24.16      
508.1875    -3.24       -62.56      -60.29      -24.05      
508.24375   -3.24       -64.8       -74.59      -24.11      
508.3       -3.27       -68.51      -59.04      -24.06      
508.35625   -3.26       -60.54      -56.92      -24.27      
508.4125    -3.26       -68.06      -74.84      -24.05      
508.46875   -3.24       -61.11      -62.08      -24.23      
508.525     -3.3        -71.9       -57.41      -24.24      
508.58125   -3.3        -66.69      -52.34      -24.06      
508.6375    -3.28       -68.7       -55.88      -24.18      
508.69375   -3.28       -66.11      -58.38      -24.2       
508.75      -3.29       -72.27      -71.76      -24.29      
508.80625   -3.3        -63.31      -59.98      -24.2       
508.8625    -3.3        -55.25      -67.35      -24.3       
508.91875   -3.3        -62.83      -59.4       -24.09      
508.975     -3.31       -63.82      -62.38      -24.06      
509.03125   -3.3        -59.52      -59.51      -24.2       
509.0875    -3.31       -64.06      -65.91      -24.18      
509.14375   -3.32       -61.84      -59.31      -24.11      
509.2       -3.35       -69.67      -60.14      -24.3       
509.25625   -3.36       -59.31      -70.22      -24.07      
509.3125    -3.36       -63.54      -55.92      -24.24      
509.36875   -3.33       -72.46      -53.6       -24.27      
509.425     -3.34       -54.32      -78.96      -24.21      
509.48125   -3.32       -62.67      -58.44      -24.34      
509.5375    -3.32       -57.85      -71.28      -24.23      
509.59375   -3.31       -67.61      -57.31      -24.32      
509.65      -3.32       -67.91      -62.46      -24.38      
509.70625   -3.35       -60.68      -63.25      -24.26      
509.7625    -3.39       -64.95      -63.19      -24.25      
509.81875   -3.36       -57.65      -63.76      -24.4       
509.875     -3.4        -71.16      -57.14      -24.39      
509.93125   -3.36       -56.83      -57.93      -24.4       
509.9875    -3.37       -58.8       -67.48      -24.3       
510.04375   -3.4        -63.31      -73.87      -24.21      
510.1       -3.4        -67.46      -74.63      -24.58      
510.15625   -3.37       -72.74      -59.76      -24.44      
510.2125    -3.41       -58.61      -58.08      -24.32      
510.26875   -3.39       -59.74      -75.86      -24.31      
510.325     -3.41       -76.12      -63.06      -24.21      
510.38125   -3.4        -65.22      -55.53      -24.19      
510.4375    -3.41       -65.92      -59.91      -24.19      
510.49375   -3.42       -76.89      -57.79      -24.18      
510.55      -3.39       -72.76      -54.73      -24.21      
510.60625   -3.36       -64.04      -60.05      -24.22      
510.6625    -3.39       -67.42      -70.57      -24.28      
510.71875   -3.4        -63.91      -59.03      -24.17      
510.775     -3.37       -72.24      -74.23      -24.23      
510.83125   -3.39       -60.75      -54.48      -24.16      
510.8875    -3.39       -71.59      -73.3       -24.35      
510.94375   -3.4        -60.89      -61.56      -24.26      
511.0       -3.4        -60.71      -70.21      -24.4       
511.05625   -3.42       -62.55      -65.65      -24.33      
511.1125    -3.43       -73.54      -56.95      -24.35      
511.16875   -3.41       -70.83      -57.59      -24.3       
511.225     -3.43       -56.76      -60.93      -24.23      
511.28125   -3.42       -65.56      -56.42      -24.31      
511.3375    -3.39       -64.3       -62.71      -24.26      
511.39375   -3.41       -62.69      -55.99      -24.24      
511.45      -3.4        -58.55      -72.36      -24.13      
511.50625   -3.42       -59.46      -59.1       -24.16      
511.5625    -3.39       -65.96      -60.06      -24.17      
511.61875   -3.4        -73.48      -66.7       -24.36      
511.675     -3.42       -64.6       -59.51      -24.42      
511.73125   -3.43       -66.37      -58.09      -24.22      
511.7875    -3.4        -62.09      -64.52      -24.53      
511.84375   -3.38       -64.75      -56.14      -24.24      
511.9       -3.4        -61.97      -64.53      -24.45      
511.95625   -3.41       -66.31      -61.66      -24.33      
512.0125    -3.42       -65.87      -57.36      -24.31      
512.06875   -3.43       -58.74      -57.65      -24.38      
512.125     -3.43       -73.11      -54.78      -24.4       
512.18125   -3.4        -65.08      -53.16      -24.39      
512.2375    -3.42       -59.06      -55.42      -24.26      
512.29375   -3.43       -68.08      -66.75      -24.43      
512.35      -3.41       -58.55      -56.62      -24.23      
512.40625   -3.41       -76.39      -61.84      -24.45      
512.4625    -3.41       -62.93      -61.12      -24.34      
512.51875   -3.4        -63.7       -67.88      -24.48      
512.575     -3.41       -72.12      -58.92      -24.19      
512.63125   -3.44       -63.58      -71.98      -24.49      
512.6875    -3.43       -64.45      -54.52      -24.3       
512.74375   -3.42       -64.79      -62.1       -24.45      
512.8       -3.42       -58.11      -58.57      -24.45      
512.85625   -3.44       -60.68      -66.49      -24.41      
512.9125    -3.44       -74.91      -56.39      -24.25      
512.96875   -3.42       -70.53      -57.95      -24.34      
513.025     -3.39       -60.53      -66.69      -24.3       
513.08125   -3.43       -68.65      -54.53      -24.34      
513.1375    -3.46       -68.57      -58.64      -24.32      
513.19375   -3.44       -60.33      -61.78      -24.36      
513.25      -3.43       -69.89      -67.02      -24.34      
513.30625   -3.42       -59.61      -68.3       -24.32      
513.3625    -3.43       -58.75      -64.65      -24.43      
513.41875   -3.42       -63.64      -66.43      -24.28      
513.475     -3.39       -64.04      -74.6       -24.33      
513.53125   -3.4        -80.18      -59.79      -24.18      
513.5875    -3.39       -66.95      -63.95      -24.24      
513.64375   -3.38       -62.29      -62.21      -24.26      
513.7       -3.37       -62.44      -60.79      -24.12      
513.75625   -3.41       -66.71      -63.33      -24.1       
513.8125    -3.38       -73.45      -66.45      -24.23      
513.86875   -3.42       -60.06      -67.69      -24.33      
513.925     -3.44       -59.74      -58.98      -24.36      
513.98125   -3.44       -64.06      -65.41      -24.27      
514.0375    -3.42       -63.61      -56.91      -24.42      
514.09375   -3.45       -63.73      -67.87      -24.4       
514.15      -3.47       -60.75      -64.59      -24.65      
514.20625   -3.43       -77.56      -67.76      -24.5       
514.2625    -3.43       -62.25      -61.17      -24.39      
514.31875   -3.41       -63.27      -66.73      -24.42      
514.375     -3.4        -66.59      -58.74      -24.42      
514.43125   -3.41       -57.87      -65.93      -24.49      
514.4875    -3.43       -64.18      -60.51      -24.44      
514.54375   -3.43       -60.99      -64.61      -24.55      
514.6       -3.41       -68.9       -72.82      -24.73      
514.65625   -3.43       -63.7       -65.16      -24.43      
514.7125    -3.4        -61.95      -71.74      -24.4       
514.76875   -3.39       -65.06      -66.02      -24.56      
514.825     -3.41       -54.32      -58.62      -24.62      
514.88125   -3.41       -72.23      -57.43      -24.53      
514.9375    -3.43       -67.87      -59.24      -24.44      
514.99375   -3.4        -63.76      -56.24      -24.4       
515.05      -3.42       -76.51      -64.87      -24.52      
515.10625   -3.38       -74.37      -58.83      -24.43      
515.1625    -3.39       -67.23      -61.15      -24.48      
515.21875   -3.4        -61.42      -63.02      -24.27      
515.275     -3.39       -63.62      -56.95      -24.39      
515.33125   -3.39       -64.65      -66.43      -24.45      
515.3875    -3.39       -59.04      -54.97      -24.42      
515.44375   -3.37       -59.41      -60.61      -24.46      
515.5       -3.41       -65.99      -54.19      -24.61      
515.55625   -3.39       -59.66      -62.89      -24.63      
515.6125    -3.39       -65.73      -59.83      -24.6       
515.66875   -3.41       -57.85      -63.1       -24.54      
515.725     -3.39       -69.49      -62.47      -24.53      
515.78125   -3.41       -59.83      -62.83      -24.36      
515.8375    -3.39       -67.39      -60.59      -24.38      
515.89375   -3.4        -60.16      -59.1       -24.6       
515.95      -3.4        -71.2       -63.37      -24.4       
516.00625   -3.41       -57.55      -64.24      -24.49      
516.0625    -3.4        -65.73      -66.88      -24.54      
516.11875   -3.39       -76.87      -58.66      -24.44      
516.175     -3.39       -58.43      -62.59      -24.35      
516.23125   -3.4        -64.96      -60.62      -24.48      
516.2875    -3.39       -58.79      -63.56      -24.49      
516.34375   -3.4        -64.79      -66.46      -24.34      
516.4       -3.39       -66.85      -71.39      -24.28      
516.45625   -3.38       -73.31      -65.39      -24.34      
516.5125    -3.4        -64.17      -64.81      -24.49      
516.56875   -3.37       -59.89      -65.76      -24.36      
516.625     -3.39       -61.6       -60.13      -24.46      
516.68125   -3.39       -58.3       -63.75      -24.44      
516.7375    -3.4        -58.86      -64.7       -24.64      
516.79375   -3.42       -68.37      -67.86      -24.46      
516.85      -3.41       -60.51      -60.09      -24.46      
516.90625   -3.42       -66.6       -67.3       -24.63      
516.9625    -3.39       -57.8       -63.71      -24.66      
517.01875   -3.41       -58.48      -57.69      -24.58      
517.075     -3.37       -62.88      -72.01      -24.7       
517.13125   -3.37       -74.59      -59.54      -24.38      
517.1875    -3.37       -70.96      -65.41      -24.48      
517.24375   -3.39       -61.98      -57.07      -24.48      
517.3       -3.34       -74.53      -64.41      -24.26      
517.35625   -3.36       -66.26      -71.94      -24.29      
517.4125    -3.37       -63.48      -61.35      -24.33      
517.46875   -3.37       -62.37      -58.63      -24.55      
517.525     -3.38       -68.55      -58.34      -24.54      
517.58125   -3.37       -62.76      -63.8       -24.49      
517.6375    -3.38       -59.49      -62.47      -24.43      
517.69375   -3.4        -69.33      -72.03      -24.51      
517.75      -3.37       -64.38      -72.11      -24.59      
517.80625   -3.38       -66.95      -67.15      -24.63      
517.8625    -3.38       -63.13      -70.21      -24.56      
517.91875   -3.39       -64.0       -63.82      -24.6       
517.975     -3.38       -64.02      -61.83      -24.66      
518.03125   -3.36       -64.7       -58.27      -24.54      
518.0875    -3.36       -62.97      -63.75      -24.46      
518.14375   -3.35       -61.81      -65.93      -24.57      
518.2       -3.39       -59.48      -55.62      -24.61      
518.25625   -3.39       -67.9       -60.12      -24.68      
518.3125    -3.36       -68.93      -61.96      -24.52      
518.36875   -3.37       -67.45      -59.21      -24.5       
518.425     -3.36       -65.2       -63.56      -24.34      
518.48125   -3.36       -59.82      -59.34      -24.42      
518.5375    -3.39       -55.67      -66.01      -24.23      
518.59375   -3.38       -66.56      -62.64      -24.21      
518.65      -3.36       -59.06      -58.96      -24.27      
518.70625   -3.38       -65.98      -61.35      -24.48      
518.7625    -3.39       -67.91      -59.4       -24.36      
518.81875   -3.38       -57.95      -61.58      -24.48      
518.875     -3.38       -55.63      -57.88      -24.54      
518.93125   -3.39       -54.88      -57.68      -24.54      
518.9875    -3.39       -61.28      -62.75      -24.55      
519.04375   -3.38       -60.65      -56.76      -24.6       
519.1       -3.38       -61.1       -66.67      -24.57      
519.15625   -3.36       -59.17      -70.05      -24.38      
519.2125    -3.37       -69.02      -66.0       -24.52      
519.26875   -3.38       -68.09      -64.16      -24.44      
519.325     -3.38       -66.24      -65.66      -24.58      
519.38125   -3.36       -59.97      -59.91      -24.55      
519.4375    -3.35       -66.99      -66.46      -24.62      
519.49375   -3.35       -61.98      -64.33      -24.4       
519.55      -3.35       -58.63      -68.8       -24.57      
519.60625   -3.36       -63.32      -65.69      -24.62      
519.6625    -3.35       -82.88      -62.99      -24.4       
519.71875   -3.36       -68.56      -57.92      -24.58      
519.775     -3.35       -61.18      -61.37      -24.46      
519.83125   -3.34       -70.19      -71.01      -24.57      
519.8875    -3.3        -61.34      -71.88      -24.48      
519.94375   -3.32       -66.69      -58.38      -24.51      
520.0       -3.31       -59.0       -59.71      -24.2       
